Voltage [V]	Current [A]
-3.000000E-1	-3.835070E-5
-2.900000E-1	-3.792390E-5
-2.800000E-1	-3.783730E-5
-2.700000E-1	-3.769100E-5
-2.600000E-1	-3.699090E-5
-2.500000E-1	-3.709730E-5
-2.400000E-1	-3.670270E-5
-2.300000E-1	-3.637170E-5
-2.200000E-1	-3.549080E-5
-2.100000E-1	-3.527640E-5
-2.000000E-1	-3.558270E-5
-1.900000E-1	-3.470350E-5
-1.800000E-1	-3.462420E-5
-1.700000E-1	-3.415240E-5
-1.600000E-1	-3.397750E-5
-1.500000E-1	-3.354150E-5
-1.400000E-1	-3.337560E-5
-1.300000E-1	-3.284240E-5
-1.200000E-1	-3.268960E-5
-1.100000E-1	-3.207020E-5
-1.000000E-1	-3.202490E-5
-9.000002E-2	-3.156600E-5
-8.000001E-2	-3.143030E-5
-7.000002E-2	-3.086030E-5
-6.000002E-2	-3.088940E-5
-5.000001E-2	-3.057200E-5
-4.000002E-2	-3.014910E-5
-3.000003E-2	-2.937420E-5
-2.000001E-2	-2.954030E-5
-1.000002E-2	-2.946590E-5
-2.980232E-8	-2.852560E-5
9.999990E-3	-2.836600E-5
1.999998E-2	-2.810280E-5
2.999997E-2	-2.769890E-5
3.999999E-2	-2.746010E-5
4.999998E-2	-2.699290E-5
5.999997E-2	-2.670970E-5
6.999999E-2	-2.660210E-5
7.999998E-2	-2.611520E-5
8.999997E-2	-2.588240E-5
9.999996E-2	-2.527820E-5
1.100000E-1	-2.496530E-5
1.200000E-1	-2.441290E-5
1.300000E-1	-2.434750E-5
1.400000E-1	-2.405140E-5
1.500000E-1	-2.354940E-5
1.600000E-1	-2.332650E-5
1.700000E-1	-2.285750E-5
1.800000E-1	-2.268460E-5
1.900000E-1	-2.253100E-5
2.000000E-1	-2.214870E-5
2.100000E-1	-2.172490E-5
2.200000E-1	-2.143500E-5
2.300000E-1	-2.102730E-5
2.399999E-1	-2.071540E-5
2.500000E-1	-2.035080E-5
2.600000E-1	-1.985920E-5
2.700000E-1	-1.959150E-5
2.800000E-1	-1.908500E-5
2.900000E-1	-1.901100E-5
3.000000E-1	-1.849690E-5
3.100000E-1	-1.817110E-5
3.200000E-1	-1.786400E-5
3.300000E-1	-1.737010E-5
3.400000E-1	-1.714550E-5
3.500000E-1	-1.661080E-5
3.600000E-1	-1.635940E-5
3.699999E-1	-1.614520E-5
3.800000E-1	-1.556420E-5
3.900000E-1	-1.516560E-5
4.000000E-1	-1.501030E-5
4.100000E-1	-1.460840E-5
4.200000E-1	-1.409440E-5
4.299999E-1	-1.361250E-5
4.400000E-1	-1.340890E-5
4.500000E-1	-1.286170E-5
4.600000E-1	-1.252100E-5
4.700000E-1	-1.209150E-5
4.800000E-1	-1.175970E-5
4.899999E-1	-1.135750E-5
4.999999E-1	-1.099020E-5
5.100000E-1	-1.061550E-5
5.200000E-1	-1.021700E-5
5.300000E-1	-9.681650E-6
5.400000E-1	-9.309620E-6
5.500000E-1	-8.973420E-6
5.599999E-1	-8.489250E-6
5.700000E-1	-8.023060E-6
5.800000E-1	-7.599180E-6
5.900000E-1	-7.170740E-6
6.000000E-1	-6.692650E-6
6.100000E-1	-6.121730E-6
6.199999E-1	-5.794570E-6
6.300000E-1	-5.267670E-6
6.400000E-1	-4.797590E-6
6.500000E-1	-4.244680E-6
6.600000E-1	-3.739360E-6
6.700000E-1	-3.230020E-6
6.799999E-1	-2.672660E-6
6.899999E-1	-2.116780E-6
7.000000E-1	-1.566000E-6
7.100000E-1	-1.005990E-6
7.200000E-1	-4.052380E-7
7.300000E-1	1.775800E-7
7.399999E-1	7.727610E-7
7.499999E-1	1.377270E-6
7.599999E-1	1.997120E-6
7.699999E-1	2.619580E-6
7.799999E-1	3.255050E-6
7.900000E-1	3.893300E-6
8.000000E-1	4.537900E-6
8.100000E-1	5.193000E-6
8.200000E-1	5.839970E-6
8.300000E-1	6.521220E-6
8.400000E-1	7.200570E-6
8.500000E-1	7.892120E-6
8.600000E-1	8.590220E-6
8.699999E-1	9.298130E-6
8.799999E-1	9.968980E-6
8.899999E-1	1.076560E-5
8.999999E-1	1.152480E-5
9.099999E-1	1.221830E-5
9.200000E-1	1.305910E-5
9.300000E-1	1.392490E-5
9.400000E-1	1.476010E-5
9.500000E-1	1.565360E-5
9.600000E-1	1.656730E-5
9.700000E-1	1.748900E-5
9.800000E-1	1.851910E-5
9.899999E-1	1.955880E-5
9.999999E-1	2.059260E-5
