Voltage [V]	Current [A]
-2.000000E-1	-1.215060E-7
-1.950000E-1	-1.177830E-7
-1.900000E-1	-1.144170E-7
-1.850000E-1	-1.102260E-7
-1.800000E-1	-1.081530E-7
-1.750000E-1	-1.063720E-7
-1.700000E-1	-1.021390E-7
-1.650000E-1	-2.796890E-8
-1.600000E-1	-2.754100E-8
-1.550000E-1	-2.546780E-8
-1.500000E-1	-2.310070E-8
-1.450000E-1	-2.323060E-8
-1.400000E-1	-2.220860E-8
-1.350000E-1	-2.052620E-8
-1.300000E-1	-1.932630E-8
-1.250000E-1	-1.888230E-8
-1.200000E-1	-1.748560E-8
-1.150000E-1	-1.631980E-8
-1.100000E-1	-1.570520E-8
-1.050000E-1	-1.436140E-8
-1.000000E-1	-1.305910E-8
-9.500001E-2	-1.200980E-8
-9.000000E-2	-1.109140E-8
-8.500001E-2	-1.036180E-8
-8.000001E-2	-9.592590E-9
-7.500000E-2	-8.469300E-9
-7.000001E-2	-7.883880E-9
-6.500001E-2	-6.449480E-9
-6.000000E-2	-6.023110E-9
-5.500001E-2	-4.820920E-9
-5.000001E-2	-4.110930E-9
-4.500000E-2	-3.407660E-9
-4.000001E-2	-2.425870E-9
-3.500001E-2	-1.844950E-9
-3.000000E-2	-9.031650E-10
-2.500001E-2	-1.243000E-10
-2.000001E-2	6.575230E-10
-1.500000E-2	1.471600E-9
-1.000001E-2	2.495240E-9
-5.000010E-3	3.214230E-9
-1.490116E-8	4.043530E-9
4.999995E-3	4.971020E-9
9.999990E-3	5.860640E-9
1.499999E-2	6.720470E-9
2.000000E-2	7.561950E-9
2.499999E-2	8.688130E-9
2.999999E-2	9.657340E-9
3.500000E-2	1.064250E-8
3.999999E-2	1.143230E-8
4.499999E-2	1.258730E-8
5.000000E-2	1.383080E-8
5.499999E-2	1.494080E-8
5.999999E-2	1.585400E-8
6.499998E-2	1.715930E-8
6.999998E-2	1.848650E-8
7.500000E-2	1.967080E-8
8.000000E-2	2.078450E-8
8.499999E-2	2.242510E-8
8.999999E-2	2.389660E-8
9.499998E-2	2.519970E-8
9.999998E-2	2.679340E-8
1.050000E-1	2.839850E-8
1.100000E-1	3.071760E-8
1.150000E-1	3.329540E-8
1.200000E-1	3.613970E-8
1.250000E-1	3.854860E-8
1.300000E-1	4.182630E-8
1.350000E-1	4.486700E-8
1.400000E-1	4.838650E-8
1.450000E-1	5.114360E-8
1.500000E-1	5.547040E-8
1.550000E-1	5.861950E-8
1.600000E-1	6.165030E-8
1.650000E-1	6.509050E-8
1.700000E-1	6.840360E-8
1.750000E-1	7.121430E-8
1.800000E-1	7.389090E-8
1.850000E-1	7.724350E-8
1.900000E-1	8.019230E-8
1.950000E-1	8.430240E-8
2.000000E-1	8.861020E-8
2.050000E-1	9.140030E-8
2.100000E-1	9.531560E-8
2.150000E-1	9.921070E-8
2.200000E-1	2.592480E-7
2.250000E-1	2.710810E-7
2.300000E-1	2.829100E-7
2.350000E-1	2.964900E-7
2.400000E-1	3.095380E-7
2.450000E-1	3.206650E-7
2.500000E-1	3.358140E-7
2.550000E-1	3.477080E-7
2.600000E-1	3.648130E-7
2.650000E-1	3.776880E-7
2.700000E-1	3.955270E-7
2.750000E-1	4.082170E-7
2.800000E-1	4.249280E-7
2.850000E-1	4.392220E-7
2.900000E-1	4.571820E-7
2.950000E-1	4.740930E-7
3.000000E-1	4.948660E-7
3.050000E-1	5.111150E-7
3.100000E-1	5.346760E-7
3.150000E-1	5.568180E-7
3.200000E-1	5.791030E-7
3.250000E-1	5.956560E-7
3.300000E-1	6.268620E-7
3.350000E-1	6.515370E-7
3.400000E-1	6.803340E-7
3.450000E-1	7.048530E-7
3.500000E-1	7.345830E-7
3.550000E-1	7.697060E-7
3.600000E-1	8.091860E-7
3.650000E-1	8.388730E-7
3.700000E-1	8.786840E-7
3.750000E-1	9.253390E-7
3.800000E-1	9.695370E-7
3.850000E-1	1.015700E-6
3.900000E-1	1.057660E-6
3.950000E-1	1.118790E-6
4.000000E-1	1.166210E-6
4.050000E-1	1.223090E-6
4.100000E-1	1.291700E-6
4.150000E-1	1.367420E-6
4.200000E-1	1.432560E-6
4.250000E-1	1.517970E-6
4.300000E-1	1.596190E-6
4.350000E-1	1.701200E-6
4.400000E-1	1.793090E-6
4.450000E-1	1.894760E-6
4.500000E-1	2.018710E-6
4.550000E-1	2.136440E-6
4.600000E-1	2.276350E-6
4.650000E-1	2.426690E-6
4.700000E-1	2.584340E-6
4.750000E-1	2.760210E-6
4.800000E-1	2.945450E-6
4.850000E-1	3.137980E-6
4.900000E-1	3.352270E-6
4.950000E-1	3.593210E-6
5.000000E-1	3.855580E-6
5.050000E-1	4.132790E-6
5.100000E-1	4.426050E-6
5.150000E-1	4.761890E-6
5.200000E-1	5.104500E-6
5.250000E-1	5.495360E-6
5.300000E-1	5.901520E-6
5.350000E-1	6.346580E-6
5.400000E-1	6.815310E-6
5.450000E-1	7.342330E-6
5.500000E-1	7.898480E-6
5.550000E-1	8.496810E-6
5.600000E-1	9.153070E-6
5.650000E-1	9.863650E-6
5.700000E-1	1.059730E-5
5.750000E-1	1.141200E-5
5.800000E-1	1.227070E-5
5.850000E-1	1.319150E-5
5.900000E-1	1.418240E-5
5.950000E-1	1.521840E-5
6.000000E-1	1.635250E-5
6.050000E-1	1.755010E-5
6.100000E-1	1.881050E-5
6.150000E-1	2.017440E-5
6.200000E-1	2.159740E-5
6.250000E-1	2.312190E-5
6.300000E-1	2.473460E-5
6.350000E-1	2.642420E-5
6.400000E-1	2.821860E-5
6.450000E-1	3.009920E-5
6.500000E-1	3.207980E-5
6.550000E-1	3.414150E-5
6.600000E-1	3.632490E-5
6.650000E-1	3.860480E-5
6.700000E-1	4.097250E-5
6.750000E-1	4.345680E-5
6.800000E-1	4.604840E-5
6.850000E-1	4.872040E-5
6.900000E-1	5.153220E-5
6.950000E-1	5.442400E-5
7.000000E-1	5.743240E-5
7.050000E-1	6.055040E-5
7.100000E-1	6.375220E-5
7.150000E-1	6.705920E-5
7.200000E-1	7.050410E-5
7.250000E-1	7.402900E-5
7.300000E-1	7.767970E-5
7.350000E-1	8.141080E-5
7.400000E-1	8.525890E-5
7.450000E-1	8.918150E-5
7.500000E-1	9.321580E-5
7.550000E-1	9.735720E-5
7.600000E-1	1.015610E-4
7.650000E-1	1.058860E-4
7.700000E-1	1.102770E-4
7.750000E-1	1.147990E-4
7.800000E-1	1.194180E-4
7.850000E-1	1.241000E-4
7.900000E-1	1.288690E-4
7.950000E-1	1.337170E-4
8.000000E-1	1.386440E-4
