Voltage [V]	Current [A]
-2.000000E-1	-1.911180E-5
-1.950000E-1	-1.905680E-5
-1.900000E-1	-1.897860E-5
-1.850000E-1	-1.891700E-5
-1.800000E-1	-1.885660E-5
-1.750000E-1	-1.879380E-5
-1.700000E-1	-1.874160E-5
-1.650000E-1	-1.866580E-5
-1.600000E-1	-1.857610E-5
-1.550000E-1	-1.854610E-5
-1.500000E-1	-1.850060E-5
-1.450000E-1	-1.844760E-5
-1.400000E-1	-1.838010E-5
-1.350000E-1	-1.836290E-5
-1.300000E-1	-1.824300E-5
-1.250000E-1	-1.817190E-5
-1.200000E-1	-1.807220E-5
-1.150000E-1	-1.802730E-5
-1.100000E-1	-1.796050E-5
-1.050000E-1	-1.790490E-5
-1.000000E-1	-1.783090E-5
-9.500001E-2	-1.777740E-5
-9.000000E-2	-1.769290E-5
-8.500001E-2	-1.762210E-5
-8.000001E-2	-1.758570E-5
-7.500000E-2	-1.752310E-5
-7.000001E-2	-1.744430E-5
-6.500001E-2	-1.735670E-5
-6.000000E-2	-1.729680E-5
-5.500001E-2	-1.719820E-5
-5.000001E-2	-1.715440E-5
-4.500000E-2	-1.707880E-5
-4.000001E-2	-1.701930E-5
-3.500001E-2	-1.694780E-5
-3.000000E-2	-1.690930E-5
-2.500001E-2	-1.679940E-5
-2.000001E-2	-1.669510E-5
-1.500000E-2	-1.662380E-5
-1.000001E-2	-1.653760E-5
-5.000010E-3	-1.648030E-5
-1.490116E-8	-1.640560E-5
4.999995E-3	-1.628600E-5
9.999990E-3	-1.623530E-5
1.499999E-2	-1.612710E-5
2.000000E-2	-1.600960E-5
2.499999E-2	-1.593410E-5
2.999999E-2	-1.586660E-5
3.500000E-2	-1.576880E-5
3.999999E-2	-1.568340E-5
4.499999E-2	-1.557160E-5
5.000000E-2	-1.548080E-5
5.499999E-2	-1.537500E-5
5.999999E-2	-1.528110E-5
6.499998E-2	-1.521400E-5
6.999998E-2	-1.511590E-5
7.500000E-2	-1.500220E-5
8.000000E-2	-1.486390E-5
8.499999E-2	-1.478870E-5
8.999999E-2	-1.464740E-5
9.499998E-2	-1.450950E-5
9.999998E-2	-1.442160E-5
1.050000E-1	-1.428580E-5
1.100000E-1	-1.417170E-5
1.150000E-1	-1.401270E-5
1.200000E-1	-1.390560E-5
1.250000E-1	-1.377180E-5
1.300000E-1	-1.365050E-5
1.350000E-1	-1.348340E-5
1.400000E-1	-1.336930E-5
1.450000E-1	-1.319130E-5
1.500000E-1	-1.303970E-5
1.550000E-1	-1.288280E-5
1.600000E-1	-1.274710E-5
1.650000E-1	-1.259130E-5
1.700000E-1	-1.242720E-5
1.750000E-1	-1.226840E-5
1.800000E-1	-1.209130E-5
1.850000E-1	-1.192260E-5
1.900000E-1	-1.176760E-5
1.950000E-1	-1.157420E-5
2.000000E-1	-1.142100E-5
2.050000E-1	-1.121010E-5
2.100000E-1	-1.104460E-5
2.150000E-1	-1.084270E-5
2.200000E-1	-1.065570E-5
2.250000E-1	-1.046750E-5
2.300000E-1	-1.026010E-5
2.350000E-1	-1.006170E-5
2.400000E-1	-9.879120E-6
2.450000E-1	-9.677930E-6
2.500000E-1	-9.479070E-6
2.550000E-1	-9.288810E-6
2.600000E-1	-9.084170E-6
2.650000E-1	-8.863210E-6
2.700000E-1	-8.623510E-6
2.750000E-1	-8.407940E-6
2.800000E-1	-8.181590E-6
2.850000E-1	-7.964660E-6
2.900000E-1	-7.737980E-6
2.950000E-1	-7.520810E-6
3.000000E-1	-7.290180E-6
3.050000E-1	-7.071310E-6
3.100000E-1	-6.838710E-6
3.150000E-1	-6.613490E-6
3.200000E-1	-6.380280E-6
3.250000E-1	-6.158030E-6
3.300000E-1	-5.918250E-6
3.350000E-1	-5.675020E-6
3.400000E-1	-5.458460E-6
3.450000E-1	-5.219530E-6
3.500000E-1	-4.982720E-6
3.550000E-1	-4.751910E-6
3.600000E-1	-4.520300E-6
3.650000E-1	-4.292100E-6
3.700000E-1	-4.035810E-6
3.750000E-1	-3.828450E-6
3.800000E-1	-3.602180E-6
3.850000E-1	-3.381300E-6
3.900000E-1	-3.140380E-6
3.950000E-1	-2.893050E-6
4.000000E-1	-2.674180E-6
4.050000E-1	-2.432200E-6
4.100000E-1	-2.200230E-6
4.150000E-1	-1.951990E-6
4.200000E-1	-1.720670E-6
4.250000E-1	-1.484470E-6
4.300000E-1	-1.247600E-6
4.350000E-1	-9.957570E-7
4.400000E-1	-7.441910E-7
4.450000E-1	-4.761680E-7
4.500000E-1	-2.277860E-7
4.550000E-1	1.367210E-8
4.600000E-1	3.116650E-7
4.650000E-1	5.879280E-7
4.700000E-1	8.744070E-7
4.750000E-1	1.168640E-6
4.800000E-1	1.469960E-6
4.850000E-1	1.803080E-6
4.900000E-1	2.134420E-6
4.950000E-1	2.485700E-6
5.000000E-1	2.848880E-6
5.050000E-1	3.238340E-6
5.100000E-1	3.665100E-6
5.150000E-1	4.100120E-6
5.200000E-1	4.562240E-6
5.250000E-1	5.052280E-6
5.300000E-1	5.588590E-6
5.350000E-1	6.149890E-6
5.400000E-1	6.731470E-6
5.450000E-1	7.370830E-6
5.500000E-1	8.033040E-6
5.550000E-1	8.776640E-6
5.600000E-1	9.543040E-6
5.650000E-1	1.035390E-5
5.700000E-1	1.123770E-5
5.750000E-1	1.215790E-5
5.800000E-1	1.314340E-5
5.850000E-1	1.420720E-5
5.900000E-1	1.533160E-5
5.950000E-1	1.652290E-5
6.000000E-1	1.779750E-5
6.050000E-1	1.913130E-5
6.100000E-1	2.056520E-5
6.150000E-1	2.205780E-5
6.200000E-1	2.365580E-5
6.250000E-1	2.533450E-5
6.300000E-1	2.709950E-5
6.350000E-1	2.898260E-5
6.400000E-1	3.094300E-5
6.450000E-1	3.297870E-5
6.500000E-1	3.514600E-5
6.550000E-1	3.740590E-5
6.600000E-1	3.974440E-5
6.650000E-1	4.220320E-5
6.700000E-1	4.476950E-5
6.750000E-1	4.742420E-5
6.800000E-1	5.019510E-5
6.850000E-1	5.308880E-5
6.900000E-1	5.605960E-5
6.950000E-1	5.914260E-5
7.000000E-1	6.232610E-5
7.050000E-1	6.560440E-5
7.100000E-1	6.901090E-5
7.150000E-1	7.251070E-5
7.200000E-1	7.610690E-5
7.250000E-1	7.980100E-5
7.300000E-1	8.361090E-5
7.350000E-1	8.751320E-5
7.400000E-1	9.152280E-5
7.450000E-1	9.562260E-5
7.500000E-1	9.981080E-5
7.550000E-1	1.041040E-4
7.600000E-1	1.084730E-4
7.650000E-1	1.129380E-4
7.700000E-1	1.174790E-4
7.750000E-1	1.221320E-4
7.800000E-1	1.268760E-4
7.850000E-1	1.317050E-4
7.900000E-1	1.366090E-4
7.950000E-1	1.416170E-4
8.000000E-1	1.466680E-4
