Voltage [V]	Current [A]
-2.000000E-1	-5.537400E-6
-1.950000E-1	-5.495210E-6
-1.900000E-1	-5.474690E-6
-1.850000E-1	-5.452770E-6
-1.800000E-1	-5.438000E-6
-1.750000E-1	-5.418440E-6
-1.700000E-1	-5.395280E-6
-1.650000E-1	-5.380130E-6
-1.600000E-1	-5.361750E-6
-1.550000E-1	-5.349120E-6
-1.500000E-1	-5.324730E-6
-1.450000E-1	-5.293600E-6
-1.400000E-1	-5.273420E-6
-1.350000E-1	-5.245010E-6
-1.300000E-1	-5.226190E-6
-1.250000E-1	-5.211680E-6
-1.200000E-1	-5.191560E-6
-1.150000E-1	-5.193150E-6
-1.100000E-1	-5.171280E-6
-1.050000E-1	-5.141680E-6
-1.000000E-1	-5.119640E-6
-9.500001E-2	-5.100540E-6
-9.000000E-2	-5.069710E-6
-8.500001E-2	-5.057700E-6
-8.000001E-2	-5.046380E-6
-7.500000E-2	-5.040140E-6
-7.000001E-2	-5.023110E-6
-6.500001E-2	-4.986910E-6
-6.000000E-2	-4.966790E-6
-5.500001E-2	-4.947340E-6
-5.000001E-2	-4.928010E-6
-4.500000E-2	-4.913060E-6
-4.000001E-2	-4.887880E-6
-3.500001E-2	-4.858070E-6
-3.000000E-2	-4.833120E-6
-2.500001E-2	-4.810840E-6
-2.000001E-2	-4.794440E-6
-1.500000E-2	-4.757570E-6
-1.000001E-2	-4.744820E-6
-5.000010E-3	-4.714370E-6
-1.490116E-8	-4.692550E-6
4.999995E-3	-4.658730E-6
9.999990E-3	-4.628620E-6
1.499999E-2	-4.613280E-6
2.000000E-2	-4.588690E-6
2.499999E-2	-4.563430E-6
2.999999E-2	-4.538170E-6
3.500000E-2	-4.522420E-6
3.999999E-2	-4.497820E-6
4.499999E-2	-4.469510E-6
5.000000E-2	-4.424650E-6
5.499999E-2	-4.390320E-6
5.999999E-2	-4.368150E-6
6.499998E-2	-4.347890E-6
6.999998E-2	-4.311460E-6
7.500000E-2	-4.272240E-6
8.000000E-2	-4.236820E-6
8.499999E-2	-4.209260E-6
8.999999E-2	-4.182150E-6
9.499998E-2	-4.143830E-6
9.999998E-2	-4.104390E-6
1.050000E-1	-4.071270E-6
1.100000E-1	-4.038030E-6
1.150000E-1	-4.006280E-6
1.200000E-1	-3.963040E-6
1.250000E-1	-3.929130E-6
1.300000E-1	-3.880560E-6
1.350000E-1	-3.839430E-6
1.400000E-1	-3.796750E-6
1.450000E-1	-3.756430E-6
1.500000E-1	-3.709650E-6
1.550000E-1	-3.661940E-6
1.600000E-1	-3.609860E-6
1.650000E-1	-3.561200E-6
1.700000E-1	-3.506930E-6
1.750000E-1	-3.456450E-6
1.800000E-1	-3.397900E-6
1.850000E-1	-3.354950E-6
1.900000E-1	-3.298450E-6
1.950000E-1	-3.249040E-6
2.000000E-1	-3.180060E-6
2.050000E-1	-3.134480E-6
2.100000E-1	-3.078360E-6
2.150000E-1	-3.021410E-6
2.200000E-1	-2.949660E-6
2.250000E-1	-2.887860E-6
2.300000E-1	-2.818850E-6
2.350000E-1	-2.762690E-6
2.400000E-1	-2.695520E-6
2.450000E-1	-2.633820E-6
2.500000E-1	-2.557200E-6
2.550000E-1	-2.487370E-6
2.600000E-1	-2.418450E-6
2.650000E-1	-2.353120E-6
2.700000E-1	-2.280980E-6
2.750000E-1	-2.203090E-6
2.800000E-1	-2.131610E-6
2.850000E-1	-2.062920E-6
2.900000E-1	-1.983400E-6
2.950000E-1	-1.898860E-6
3.000000E-1	-1.825130E-6
3.050000E-1	-1.736310E-6
3.100000E-1	-1.650990E-6
3.150000E-1	-1.571200E-6
3.200000E-1	-1.489410E-6
3.250000E-1	-1.412260E-6
3.300000E-1	-1.319460E-6
3.350000E-1	-1.236720E-6
3.400000E-1	-1.145980E-6
3.450000E-1	-1.056970E-6
3.500000E-1	-9.767370E-7
3.550000E-1	-8.760380E-7
3.600000E-1	-7.914020E-7
3.650000E-1	-7.003810E-7
3.700000E-1	-5.972270E-7
3.750000E-1	-5.017590E-7
3.800000E-1	-4.030380E-7
3.850000E-1	-3.061660E-7
3.900000E-1	-1.951260E-7
3.950000E-1	-2.497910E-8
4.000000E-1	9.011470E-9
4.050000E-1	5.039700E-8
4.100000E-1	9.635710E-8
4.150000E-1	3.607890E-7
4.200000E-1	4.753300E-7
4.250000E-1	5.946170E-7
4.300000E-1	7.250520E-7
4.350000E-1	8.548740E-7
4.400000E-1	1.003460E-6
4.450000E-1	1.150710E-6
4.500000E-1	1.300600E-6
4.550000E-1	1.470780E-6
4.600000E-1	1.637950E-6
4.650000E-1	1.822390E-6
4.700000E-1	2.014120E-6
4.750000E-1	2.218500E-6
4.800000E-1	2.428780E-6
4.850000E-1	2.665580E-6
4.900000E-1	2.906760E-6
4.950000E-1	3.178040E-6
5.000000E-1	3.459330E-6
5.050000E-1	3.761960E-6
5.100000E-1	4.089680E-6
5.150000E-1	4.431600E-6
5.200000E-1	4.808950E-6
5.250000E-1	5.208810E-6
5.300000E-1	5.654400E-6
5.350000E-1	6.123990E-6
5.400000E-1	6.620460E-6
5.450000E-1	7.165720E-6
5.500000E-1	7.745160E-6
5.550000E-1	8.367960E-6
5.600000E-1	9.039940E-6
5.650000E-1	9.749190E-6
5.700000E-1	1.051990E-5
5.750000E-1	1.134080E-5
5.800000E-1	1.221010E-5
5.850000E-1	1.314400E-5
5.900000E-1	1.415410E-5
5.950000E-1	1.523510E-5
6.000000E-1	1.635240E-5
6.050000E-1	1.756520E-5
6.100000E-1	1.885050E-5
6.150000E-1	2.020200E-5
6.200000E-1	2.165540E-5
6.250000E-1	2.318650E-5
6.300000E-1	2.480960E-5
6.350000E-1	2.650280E-5
6.400000E-1	2.830240E-5
6.450000E-1	3.017710E-5
6.500000E-1	3.216840E-5
6.550000E-1	3.424120E-5
6.600000E-1	3.641630E-5
6.650000E-1	3.870480E-5
6.700000E-1	4.108110E-5
6.750000E-1	4.357430E-5
6.800000E-1	4.614570E-5
6.850000E-1	4.883160E-5
6.900000E-1	5.162330E-5
6.950000E-1	5.452350E-5
7.000000E-1	5.750180E-5
7.050000E-1	6.060430E-5
7.100000E-1	6.379830E-5
7.150000E-1	6.711340E-5
7.200000E-1	7.052560E-5
7.250000E-1	7.402110E-5
7.300000E-1	7.763920E-5
7.350000E-1	8.133970E-5
7.400000E-1	8.514870E-5
7.450000E-1	8.905930E-5
7.500000E-1	9.307020E-5
7.550000E-1	9.716190E-5
7.600000E-1	1.013590E-4
7.650000E-1	1.056560E-4
7.700000E-1	1.099960E-4
7.750000E-1	1.144690E-4
7.800000E-1	1.190300E-4
7.850000E-1	1.236950E-4
7.900000E-1	1.284390E-4
7.950000E-1	1.332290E-4
8.000000E-1	1.381320E-4
