Voltage [V]	Current [A]
-2.000000E-1	-1.016520E-5
-1.950000E-1	-1.013390E-5
-1.900000E-1	-1.011540E-5
-1.850000E-1	-1.008680E-5
-1.800000E-1	-1.003530E-5
-1.750000E-1	-1.000510E-5
-1.700000E-1	-9.973370E-6
-1.650000E-1	-9.948540E-6
-1.600000E-1	-9.917950E-6
-1.550000E-1	-9.883100E-6
-1.500000E-1	-9.835290E-6
-1.450000E-1	-9.815730E-6
-1.400000E-1	-9.781160E-6
-1.350000E-1	-9.775110E-6
-1.300000E-1	-9.730160E-6
-1.250000E-1	-9.691730E-6
-1.200000E-1	-9.657040E-6
-1.150000E-1	-9.595180E-6
-1.100000E-1	-9.572650E-6
-1.050000E-1	-9.542030E-6
-1.000000E-1	-9.508500E-6
-9.500001E-2	-9.478480E-6
-9.000000E-2	-9.441610E-6
-8.500001E-2	-9.376990E-6
-8.000001E-2	-9.352440E-6
-7.500000E-2	-9.320260E-6
-7.000001E-2	-9.279740E-6
-6.500001E-2	-9.249050E-6
-6.000000E-2	-9.197230E-6
-5.500001E-2	-9.173420E-6
-5.000001E-2	-9.125930E-6
-4.500000E-2	-9.085800E-6
-4.000001E-2	-9.064780E-6
-3.500001E-2	-8.997190E-6
-3.000000E-2	-8.974570E-6
-2.500001E-2	-8.939260E-6
-2.000001E-2	-8.884500E-6
-1.500000E-2	-8.838040E-6
-1.000001E-2	-8.780990E-6
-5.000010E-3	-8.759250E-6
-1.490116E-8	-8.724290E-6
4.999995E-3	-8.671950E-6
9.999990E-3	-8.607250E-6
1.499999E-2	-8.557650E-6
2.000000E-2	-8.532600E-6
2.499999E-2	-8.480430E-6
2.999999E-2	-8.441530E-6
3.500000E-2	-8.384220E-6
3.999999E-2	-8.340600E-6
4.499999E-2	-8.297000E-6
5.000000E-2	-8.245300E-6
5.499999E-2	-8.198300E-6
5.999999E-2	-8.119720E-6
6.499998E-2	-8.057620E-6
6.999998E-2	-7.997710E-6
7.500000E-2	-7.958630E-6
8.000000E-2	-7.904790E-6
8.499999E-2	-7.841730E-6
8.999999E-2	-7.772140E-6
9.499998E-2	-7.712990E-6
9.999998E-2	-7.625580E-6
1.050000E-1	-7.578830E-6
1.100000E-1	-7.510260E-6
1.150000E-1	-7.445640E-6
1.200000E-1	-7.364490E-6
1.250000E-1	-7.296620E-6
1.300000E-1	-7.228590E-6
1.350000E-1	-7.146770E-6
1.400000E-1	-7.068350E-6
1.450000E-1	-6.981490E-6
1.500000E-1	-6.906970E-6
1.550000E-1	-6.821160E-6
1.600000E-1	-6.745780E-6
1.650000E-1	-6.666610E-6
1.700000E-1	-6.582740E-6
1.750000E-1	-6.487920E-6
1.800000E-1	-6.396630E-6
1.850000E-1	-6.307350E-6
1.900000E-1	-6.205770E-6
1.950000E-1	-6.118040E-6
2.000000E-1	-6.013660E-6
2.050000E-1	-5.910900E-6
2.100000E-1	-5.826250E-6
2.150000E-1	-5.719080E-6
2.200000E-1	-5.602550E-6
2.250000E-1	-5.492430E-6
2.300000E-1	-5.387500E-6
2.350000E-1	-5.272060E-6
2.400000E-1	-5.168720E-6
2.450000E-1	-5.051400E-6
2.500000E-1	-4.924290E-6
2.550000E-1	-4.806990E-6
2.600000E-1	-4.692490E-6
2.650000E-1	-4.572990E-6
2.700000E-1	-4.439660E-6
2.750000E-1	-4.327070E-6
2.800000E-1	-4.197750E-6
2.850000E-1	-4.071860E-6
2.900000E-1	-3.951950E-6
2.950000E-1	-3.815950E-6
3.000000E-1	-3.687920E-6
3.050000E-1	-3.549160E-6
3.100000E-1	-3.418780E-6
3.150000E-1	-3.276580E-6
3.200000E-1	-3.138650E-6
3.250000E-1	-3.000410E-6
3.300000E-1	-2.863050E-6
3.350000E-1	-2.717720E-6
3.400000E-1	-2.590640E-6
3.450000E-1	-2.449520E-6
3.500000E-1	-2.313560E-6
3.550000E-1	-2.169420E-6
3.600000E-1	-2.022860E-6
3.650000E-1	-1.882990E-6
3.700000E-1	-1.736480E-6
3.750000E-1	-1.592450E-6
3.800000E-1	-1.447220E-6
3.850000E-1	-1.291610E-6
3.900000E-1	-1.150100E-6
3.950000E-1	-1.001310E-6
4.000000E-1	-8.333390E-7
4.050000E-1	-6.817300E-7
4.100000E-1	-5.371750E-7
4.150000E-1	-3.697470E-7
4.200000E-1	-2.009920E-7
4.250000E-1	-1.379920E-8
4.300000E-1	4.601790E-8
4.350000E-1	3.015440E-7
4.400000E-1	4.756860E-7
4.450000E-1	6.686760E-7
4.500000E-1	8.612140E-7
4.550000E-1	1.060370E-6
4.600000E-1	1.263120E-6
4.650000E-1	1.491150E-6
4.700000E-1	1.709160E-6
4.750000E-1	1.952100E-6
4.800000E-1	2.206600E-6
4.850000E-1	2.474540E-6
4.900000E-1	2.759950E-6
4.950000E-1	3.059470E-6
5.000000E-1	3.383930E-6
5.050000E-1	3.732170E-6
5.100000E-1	4.089130E-6
5.150000E-1	4.466230E-6
5.200000E-1	4.879080E-6
5.250000E-1	5.313680E-6
5.300000E-1	5.787890E-6
5.350000E-1	6.304550E-6
5.400000E-1	6.843870E-6
5.450000E-1	7.414890E-6
5.500000E-1	8.035100E-6
5.550000E-1	8.706180E-6
5.600000E-1	9.425300E-6
5.650000E-1	1.019120E-5
5.700000E-1	1.100360E-5
5.750000E-1	1.187570E-5
5.800000E-1	1.280220E-5
5.850000E-1	1.380220E-5
5.900000E-1	1.485430E-5
5.950000E-1	1.598840E-5
6.000000E-1	1.719230E-5
6.050000E-1	1.845540E-5
6.100000E-1	1.981540E-5
6.150000E-1	2.124510E-5
6.200000E-1	2.275240E-5
6.250000E-1	2.437270E-5
6.300000E-1	2.607330E-5
6.350000E-1	2.783730E-5
6.400000E-1	2.970140E-5
6.450000E-1	3.165900E-5
6.500000E-1	3.372400E-5
6.550000E-1	3.587620E-5
6.600000E-1	3.812340E-5
6.650000E-1	4.048570E-5
6.700000E-1	4.293930E-5
6.750000E-1	4.550920E-5
6.800000E-1	4.817440E-5
6.850000E-1	5.094160E-5
6.900000E-1	5.381860E-5
6.950000E-1	5.679590E-5
7.000000E-1	5.985500E-5
7.050000E-1	6.303220E-5
7.100000E-1	6.631160E-5
7.150000E-1	6.969610E-5
7.200000E-1	7.320680E-5
7.250000E-1	7.679590E-5
7.300000E-1	8.049310E-5
7.350000E-1	8.426940E-5
7.400000E-1	8.818300E-5
7.450000E-1	9.217590E-5
7.500000E-1	9.624200E-5
7.550000E-1	1.004120E-4
7.600000E-1	1.046800E-4
7.650000E-1	1.090480E-4
7.700000E-1	1.134950E-4
7.750000E-1	1.180570E-4
7.800000E-1	1.226750E-4
7.850000E-1	1.273970E-4
7.900000E-1	1.322280E-4
7.950000E-1	1.370970E-4
8.000000E-1	1.420460E-4
