Voltage [V]	Current [A]
-2.000000E-1	-5.736530E-9
-1.950000E-1	-5.418660E-9
-1.900000E-1	-4.897070E-9
-1.850000E-1	-4.670640E-9
-1.800000E-1	-4.586520E-9
-1.750000E-1	-4.149620E-9
-1.700000E-1	-3.692170E-9
-1.650000E-1	-3.341650E-9
-1.600000E-1	-3.015980E-9
-1.550000E-1	-2.766600E-9
-1.500000E-1	-2.642670E-9
-1.450000E-1	-2.183620E-9
-1.400000E-1	-2.164360E-9
-1.350000E-1	-1.849540E-9
-1.300000E-1	-1.613090E-9
-1.250000E-1	-1.255810E-9
-1.200000E-1	-1.101110E-9
-1.150000E-1	-8.010030E-10
-1.100000E-1	-5.839710E-10
-1.050000E-1	-3.773210E-10
-1.000000E-1	-2.100590E-10
-9.500001E-2	-2.943280E-11
-9.000000E-2	1.654270E-10
-8.500001E-2	3.343340E-10
-8.000001E-2	4.655240E-10
-7.500000E-2	6.753800E-10
-7.000001E-2	8.669020E-10
-6.500001E-2	1.108260E-9
-6.000000E-2	1.246320E-9
-5.500001E-2	1.359960E-9
-5.000001E-2	1.495870E-9
-4.500000E-2	1.559630E-9
-4.000001E-2	1.784720E-9
-3.500001E-2	1.920510E-9
-3.000000E-2	2.086410E-9
-2.500001E-2	2.371970E-9
-2.000001E-2	2.551870E-9
-1.500000E-2	2.706020E-9
-1.000001E-2	2.847590E-9
-5.000010E-3	2.961540E-9
-1.490116E-8	3.149910E-9
4.999995E-3	3.326150E-9
9.999990E-3	3.430570E-9
1.499999E-2	3.652990E-9
2.000000E-2	3.802100E-9
2.499999E-2	3.869070E-9
2.999999E-2	4.143250E-9
3.500000E-2	4.250680E-9
3.999999E-2	4.392770E-9
4.499999E-2	4.627310E-9
5.000000E-2	4.774280E-9
5.499999E-2	4.906500E-9
5.999999E-2	5.048350E-9
6.499998E-2	5.232320E-9
6.999998E-2	5.501450E-9
7.500000E-2	5.807200E-9
8.000000E-2	6.046440E-9
8.499999E-2	6.241080E-9
8.999999E-2	6.461200E-9
9.499998E-2	6.661960E-9
9.999998E-2	6.963900E-9
1.050000E-1	7.119300E-9
1.100000E-1	7.325400E-9
1.150000E-1	7.500370E-9
1.200000E-1	7.832900E-9
1.250000E-1	8.085820E-9
1.300000E-1	8.391640E-9
1.350000E-1	8.649390E-9
1.400000E-1	8.963810E-9
1.450000E-1	9.199060E-9
1.500000E-1	9.714310E-9
1.550000E-1	1.000850E-8
1.600000E-1	1.050650E-8
1.650000E-1	1.092070E-8
1.700000E-1	1.136890E-8
1.750000E-1	1.184050E-8
1.800000E-1	1.247300E-8
1.850000E-1	1.293670E-8
1.900000E-1	1.371280E-8
1.950000E-1	1.407440E-8
2.000000E-1	1.478210E-8
2.050000E-1	1.559600E-8
2.100000E-1	1.634860E-8
2.150000E-1	1.718420E-8
2.200000E-1	1.782380E-8
2.250000E-1	1.909450E-8
2.300000E-1	1.984110E-8
2.350000E-1	2.093220E-8
2.400000E-1	2.209160E-8
2.450000E-1	2.342610E-8
2.500000E-1	2.587420E-8
2.550000E-1	2.729430E-8
2.600000E-1	2.967270E-8
2.650000E-1	3.228340E-8
2.700000E-1	3.480470E-8
2.750000E-1	3.773010E-8
2.800000E-1	4.076890E-8
2.850000E-1	4.417700E-8
2.900000E-1	4.742780E-8
2.950000E-1	5.108550E-8
3.000000E-1	5.529950E-8
3.050000E-1	5.892990E-8
3.100000E-1	6.362220E-8
3.150000E-1	6.838090E-8
3.200000E-1	7.309650E-8
3.250000E-1	7.809540E-8
3.300000E-1	8.334590E-8
3.350000E-1	8.850620E-8
3.400000E-1	9.433320E-8
3.450000E-1	2.341980E-7
3.500000E-1	2.516310E-7
3.550000E-1	2.713330E-7
3.600000E-1	2.927190E-7
3.650000E-1	3.159850E-7
3.700000E-1	3.414470E-7
3.750000E-1	3.688860E-7
3.800000E-1	3.987510E-7
3.850000E-1	4.313950E-7
3.900000E-1	4.675700E-7
3.950000E-1	5.054550E-7
4.000000E-1	5.465960E-7
4.050000E-1	5.925040E-7
4.100000E-1	6.410150E-7
4.150000E-1	6.945520E-7
4.200000E-1	7.528090E-7
4.250000E-1	8.177890E-7
4.300000E-1	8.811470E-7
4.350000E-1	9.545810E-7
4.400000E-1	1.037470E-6
4.450000E-1	1.124240E-6
4.500000E-1	1.212460E-6
4.550000E-1	1.312480E-6
4.600000E-1	1.424010E-6
4.650000E-1	1.540130E-6
4.700000E-1	1.666750E-6
4.750000E-1	1.803400E-6
4.800000E-1	1.951060E-6
4.850000E-1	2.112050E-6
4.900000E-1	2.283720E-6
4.950000E-1	2.468400E-6
5.000000E-1	2.670050E-6
5.050000E-1	2.884650E-6
5.100000E-1	3.118920E-6
5.150000E-1	3.372600E-6
5.200000E-1	3.637480E-6
5.250000E-1	3.933880E-6
5.300000E-1	4.244140E-6
5.350000E-1	4.584480E-6
5.400000E-1	4.941550E-6
5.450000E-1	5.333720E-6
5.500000E-1	5.751350E-6
5.550000E-1	6.205910E-6
5.600000E-1	6.691600E-6
5.650000E-1	7.200660E-6
5.700000E-1	7.762530E-6
5.750000E-1	8.354250E-6
5.800000E-1	8.988970E-6
5.850000E-1	9.672340E-6
5.900000E-1	1.041030E-5
5.950000E-1	1.119980E-5
6.000000E-1	1.203190E-5
6.050000E-1	1.292610E-5
6.100000E-1	1.387890E-5
6.150000E-1	1.489800E-5
6.200000E-1	1.598020E-5
6.250000E-1	1.713660E-5
6.300000E-1	1.836360E-5
6.350000E-1	1.966490E-5
6.400000E-1	2.104930E-5
6.450000E-1	2.251550E-5
6.500000E-1	2.406820E-5
6.550000E-1	2.570840E-5
6.600000E-1	2.744200E-5
6.650000E-1	2.927440E-5
6.700000E-1	3.120460E-5
6.750000E-1	3.323350E-5
6.800000E-1	3.537370E-5
6.850000E-1	3.761770E-5
6.900000E-1	3.997260E-5
6.950000E-1	4.243390E-5
7.000000E-1	4.502190E-5
7.050000E-1	4.770940E-5
7.100000E-1	5.052670E-5
7.150000E-1	5.346460E-5
7.200000E-1	5.652060E-5
7.250000E-1	5.970750E-5
7.300000E-1	6.301680E-5
7.350000E-1	6.645250E-5
7.400000E-1	7.000940E-5
7.450000E-1	7.368750E-5
7.500000E-1	7.749690E-5
7.550000E-1	8.143760E-5
7.600000E-1	8.549990E-5
7.650000E-1	8.969220E-5
7.700000E-1	9.400000E-5
7.750000E-1	9.844760E-5
7.800000E-1	1.030070E-4
7.850000E-1	1.077120E-4
7.900000E-1	1.125240E-4
7.950000E-1	1.174660E-4
8.000000E-1	1.225320E-4
