Voltage [V]	Current [A]
-2.000000E-1	-7.014550E-5
-1.950000E-1	-6.989680E-5
-1.900000E-1	-6.968470E-5
-1.850000E-1	-6.949980E-5
-1.800000E-1	-6.918380E-5
-1.750000E-1	-6.894650E-5
-1.700000E-1	-6.874780E-5
-1.650000E-1	-6.858290E-5
-1.600000E-1	-6.845430E-5
-1.550000E-1	-6.822970E-5
-1.500000E-1	-6.811050E-5
-1.450000E-1	-6.789290E-5
-1.400000E-1	-6.772050E-5
-1.350000E-1	-6.741480E-5
-1.300000E-1	-6.719250E-5
-1.250000E-1	-6.715490E-5
-1.200000E-1	-6.700820E-5
-1.150000E-1	-6.672510E-5
-1.100000E-1	-6.648440E-5
-1.050000E-1	-6.617630E-5
-1.000000E-1	-6.599080E-5
-9.500001E-2	-6.570150E-5
-9.000000E-2	-6.547230E-5
-8.500001E-2	-6.529990E-5
-8.000001E-2	-6.497380E-5
-7.500000E-2	-6.476690E-5
-7.000001E-2	-6.445780E-5
-6.500001E-2	-6.433140E-5
-6.000000E-2	-6.411030E-5
-5.500001E-2	-6.375560E-5
-5.000001E-2	-6.345650E-5
-4.500000E-2	-6.323960E-5
-4.000001E-2	-6.291230E-5
-3.500001E-2	-6.273700E-5
-3.000000E-2	-6.243250E-5
-2.500001E-2	-6.215600E-5
-2.000001E-2	-6.202030E-5
-1.500000E-2	-6.153790E-5
-1.000001E-2	-6.134020E-5
-5.000010E-3	-6.097150E-5
-1.490116E-8	-6.071400E-5
4.999995E-3	-6.027860E-5
9.999990E-3	-6.003840E-5
1.499999E-2	-5.978690E-5
2.000000E-2	-5.936180E-5
2.499999E-2	-5.908030E-5
2.999999E-2	-5.889660E-5
3.500000E-2	-5.847800E-5
3.999999E-2	-5.824590E-5
4.499999E-2	-5.790170E-5
5.000000E-2	-5.743230E-5
5.499999E-2	-5.710860E-5
5.999999E-2	-5.669320E-5
6.499998E-2	-5.632770E-5
6.999998E-2	-5.606790E-5
7.500000E-2	-5.553760E-5
8.000000E-2	-5.516160E-5
8.499999E-2	-5.478230E-5
8.999999E-2	-5.446340E-5
9.499998E-2	-5.397630E-5
9.999998E-2	-5.352880E-5
1.050000E-1	-5.319160E-5
1.100000E-1	-5.275890E-5
1.150000E-1	-5.235670E-5
1.200000E-1	-5.183420E-5
1.250000E-1	-5.136790E-5
1.300000E-1	-5.090920E-5
1.350000E-1	-5.040860E-5
1.400000E-1	-4.988370E-5
1.450000E-1	-4.934190E-5
1.500000E-1	-4.885820E-5
1.550000E-1	-4.831080E-5
1.600000E-1	-4.790960E-5
1.650000E-1	-4.732730E-5
1.700000E-1	-4.675970E-5
1.750000E-1	-4.624430E-5
1.800000E-1	-4.570890E-5
1.850000E-1	-4.506170E-5
1.900000E-1	-4.442010E-5
1.950000E-1	-4.380990E-5
2.000000E-1	-4.320320E-5
2.050000E-1	-4.260500E-5
2.100000E-1	-4.200050E-5
2.150000E-1	-4.127980E-5
2.200000E-1	-4.061190E-5
2.250000E-1	-4.001140E-5
2.300000E-1	-3.934110E-5
2.350000E-1	-3.858260E-5
2.400000E-1	-3.796250E-5
2.450000E-1	-3.730730E-5
2.500000E-1	-3.656590E-5
2.550000E-1	-3.595780E-5
2.600000E-1	-3.518250E-5
2.650000E-1	-3.443890E-5
2.700000E-1	-3.369130E-5
2.750000E-1	-3.300850E-5
2.800000E-1	-3.228320E-5
2.850000E-1	-3.159620E-5
2.900000E-1	-3.093800E-5
2.950000E-1	-3.019400E-5
3.000000E-1	-2.941740E-5
3.050000E-1	-2.869760E-5
3.100000E-1	-2.791440E-5
3.150000E-1	-2.718140E-5
3.200000E-1	-2.638510E-5
3.250000E-1	-2.567310E-5
3.300000E-1	-2.494840E-5
3.350000E-1	-2.420070E-5
3.400000E-1	-2.350040E-5
3.450000E-1	-2.270420E-5
3.500000E-1	-2.198500E-5
3.550000E-1	-2.128700E-5
3.600000E-1	-2.055250E-5
3.650000E-1	-1.987440E-5
3.700000E-1	-1.913500E-5
3.750000E-1	-1.837980E-5
3.800000E-1	-1.765370E-5
3.850000E-1	-1.697160E-5
3.900000E-1	-1.631830E-5
3.950000E-1	-1.557120E-5
4.000000E-1	-1.487750E-5
4.050000E-1	-1.423960E-5
4.100000E-1	-1.356080E-5
4.150000E-1	-1.290590E-5
4.200000E-1	-1.225760E-5
4.250000E-1	-1.160190E-5
4.300000E-1	-1.098320E-5
4.350000E-1	-1.036510E-5
4.400000E-1	-9.721300E-6
4.450000E-1	-9.072880E-6
4.500000E-1	-8.456270E-6
4.550000E-1	-7.827440E-6
4.600000E-1	-7.246590E-6
4.650000E-1	-6.629640E-6
4.700000E-1	-6.018330E-6
4.750000E-1	-5.413090E-6
4.800000E-1	-4.822620E-6
4.850000E-1	-4.217470E-6
4.900000E-1	-3.608400E-6
4.950000E-1	-3.009820E-6
5.000000E-1	-2.388210E-6
5.050000E-1	-1.764400E-6
5.100000E-1	-1.136210E-6
5.150000E-1	-4.991770E-7
5.200000E-1	1.474960E-7
5.250000E-1	8.140210E-7
5.300000E-1	1.490410E-6
5.350000E-1	2.190210E-6
5.400000E-1	2.918920E-6
5.450000E-1	3.666320E-6
5.500000E-1	4.440610E-6
5.550000E-1	5.245420E-6
5.600000E-1	6.083440E-6
5.650000E-1	6.957450E-6
5.700000E-1	7.878740E-6
5.750000E-1	8.835840E-6
5.800000E-1	9.847700E-6
5.850000E-1	1.091600E-5
5.900000E-1	1.204300E-5
5.950000E-1	1.322110E-5
6.000000E-1	1.446940E-5
6.050000E-1	1.578830E-5
6.100000E-1	1.717990E-5
6.150000E-1	1.864880E-5
6.200000E-1	2.018990E-5
6.250000E-1	2.182190E-5
6.300000E-1	2.354170E-5
6.350000E-1	2.535630E-5
6.400000E-1	2.727910E-5
6.450000E-1	2.928590E-5
6.500000E-1	3.141140E-5
6.550000E-1	3.363340E-5
6.600000E-1	3.596990E-5
6.650000E-1	3.842040E-5
6.700000E-1	4.098540E-5
6.750000E-1	4.366230E-5
6.800000E-1	4.646230E-5
6.850000E-1	4.938240E-5
6.900000E-1	5.242130E-5
6.950000E-1	5.560210E-5
7.000000E-1	5.890180E-5
7.050000E-1	6.231430E-5
7.100000E-1	6.588680E-5
7.150000E-1	6.957930E-5
7.200000E-1	7.341420E-5
7.250000E-1	7.739120E-5
7.300000E-1	8.148920E-5
7.350000E-1	8.571270E-5
7.400000E-1	9.007410E-5
7.450000E-1	9.455630E-5
7.500000E-1	9.918260E-5
7.550000E-1	1.039650E-4
7.600000E-1	1.088570E-4
7.650000E-1	1.138920E-4
7.700000E-1	1.190250E-4
7.750000E-1	1.243080E-4
7.800000E-1	1.296740E-4
7.850000E-1	1.351950E-4
7.900000E-1	1.408270E-4
7.950000E-1	1.465700E-4
8.000000E-1	1.524300E-4
