Voltage [V]	Current [A]
-2.000000E-1	-8.165040E-5
-1.950000E-1	-8.123930E-5
-1.900000E-1	-8.101610E-5
-1.850000E-1	-8.072130E-5
-1.800000E-1	-8.045370E-5
-1.750000E-1	-8.018310E-5
-1.700000E-1	-7.979740E-5
-1.650000E-1	-7.963490E-5
-1.600000E-1	-7.936070E-5
-1.550000E-1	-7.913130E-5
-1.500000E-1	-7.903190E-5
-1.450000E-1	-7.860450E-5
-1.400000E-1	-7.848130E-5
-1.350000E-1	-7.830410E-5
-1.300000E-1	-7.794280E-5
-1.250000E-1	-7.779930E-5
-1.200000E-1	-7.753450E-5
-1.150000E-1	-7.718150E-5
-1.100000E-1	-7.699250E-5
-1.050000E-1	-7.668100E-5
-1.000000E-1	-7.643190E-5
-9.500001E-2	-7.619430E-5
-9.000000E-2	-7.595130E-5
-8.500001E-2	-7.575030E-5
-8.000001E-2	-7.546220E-5
-7.500000E-2	-7.511240E-5
-7.000001E-2	-7.478140E-5
-6.500001E-2	-7.467050E-5
-6.000000E-2	-7.441540E-5
-5.500001E-2	-7.406940E-5
-5.000001E-2	-7.383470E-5
-4.500000E-2	-7.361940E-5
-4.000001E-2	-7.341520E-5
-3.500001E-2	-7.301120E-5
-3.000000E-2	-7.266860E-5
-2.500001E-2	-7.229620E-5
-2.000001E-2	-7.185310E-5
-1.500000E-2	-7.146410E-5
-1.000001E-2	-7.115730E-5
-5.000010E-3	-7.086750E-5
-1.490116E-8	-7.066590E-5
4.999995E-3	-7.021490E-5
9.999990E-3	-6.998260E-5
1.499999E-2	-6.961150E-5
2.000000E-2	-6.928890E-5
2.499999E-2	-6.909310E-5
2.999999E-2	-6.859970E-5
3.500000E-2	-6.827830E-5
3.999999E-2	-6.784880E-5
4.499999E-2	-6.735690E-5
5.000000E-2	-6.701060E-5
5.499999E-2	-6.658560E-5
5.999999E-2	-6.624390E-5
6.499998E-2	-6.580870E-5
6.999998E-2	-6.547390E-5
7.500000E-2	-6.508950E-5
8.000000E-2	-6.478610E-5
8.499999E-2	-6.424240E-5
8.999999E-2	-6.360960E-5
9.499998E-2	-6.318650E-5
9.999998E-2	-6.285050E-5
1.050000E-1	-6.233540E-5
1.100000E-1	-6.177530E-5
1.150000E-1	-6.134250E-5
1.200000E-1	-6.075790E-5
1.250000E-1	-6.015840E-5
1.300000E-1	-5.952260E-5
1.350000E-1	-5.910220E-5
1.400000E-1	-5.838450E-5
1.450000E-1	-5.786560E-5
1.500000E-1	-5.737590E-5
1.550000E-1	-5.688880E-5
1.600000E-1	-5.626080E-5
1.650000E-1	-5.572760E-5
1.700000E-1	-5.499670E-5
1.750000E-1	-5.446380E-5
1.800000E-1	-5.381120E-5
1.850000E-1	-5.315550E-5
1.900000E-1	-5.244330E-5
1.950000E-1	-5.178980E-5
2.000000E-1	-5.106740E-5
2.050000E-1	-5.030110E-5
2.100000E-1	-4.960780E-5
2.150000E-1	-4.886350E-5
2.200000E-1	-4.821860E-5
2.250000E-1	-4.743360E-5
2.300000E-1	-4.672230E-5
2.350000E-1	-4.595020E-5
2.400000E-1	-4.522460E-5
2.450000E-1	-4.436170E-5
2.500000E-1	-4.360010E-5
2.550000E-1	-4.276610E-5
2.600000E-1	-4.196270E-5
2.650000E-1	-4.112190E-5
2.700000E-1	-4.029460E-5
2.750000E-1	-3.952360E-5
2.800000E-1	-3.869600E-5
2.850000E-1	-3.776470E-5
2.900000E-1	-3.692830E-5
2.950000E-1	-3.608510E-5
3.000000E-1	-3.527060E-5
3.050000E-1	-3.439850E-5
3.100000E-1	-3.357650E-5
3.150000E-1	-3.271070E-5
3.200000E-1	-3.184670E-5
3.250000E-1	-3.104110E-5
3.300000E-1	-3.010910E-5
3.350000E-1	-2.926660E-5
3.400000E-1	-2.844590E-5
3.450000E-1	-2.758250E-5
3.500000E-1	-2.670370E-5
3.550000E-1	-2.586520E-5
3.600000E-1	-2.498680E-5
3.650000E-1	-2.414290E-5
3.700000E-1	-2.333570E-5
3.750000E-1	-2.247350E-5
3.800000E-1	-2.160270E-5
3.850000E-1	-2.080860E-5
3.900000E-1	-2.001590E-5
3.950000E-1	-1.919390E-5
4.000000E-1	-1.841820E-5
4.050000E-1	-1.766600E-5
4.100000E-1	-1.688410E-5
4.150000E-1	-1.607670E-5
4.200000E-1	-1.531970E-5
4.250000E-1	-1.453600E-5
4.300000E-1	-1.382390E-5
4.350000E-1	-1.308130E-5
4.400000E-1	-1.232290E-5
4.450000E-1	-1.160010E-5
4.500000E-1	-1.090070E-5
4.550000E-1	-1.020770E-5
4.600000E-1	-9.500510E-6
4.650000E-1	-8.825370E-6
4.700000E-1	-8.119730E-6
4.750000E-1	-7.448220E-6
4.800000E-1	-6.755900E-6
4.850000E-1	-6.080460E-6
4.900000E-1	-5.386970E-6
4.950000E-1	-4.708060E-6
5.000000E-1	-4.018840E-6
5.050000E-1	-3.319480E-6
5.100000E-1	-2.615410E-6
5.150000E-1	-1.916600E-6
5.200000E-1	-1.215190E-6
5.250000E-1	-4.892770E-7
5.300000E-1	2.380360E-7
5.350000E-1	9.923280E-7
5.400000E-1	1.772210E-6
5.450000E-1	2.561460E-6
5.500000E-1	3.385820E-6
5.550000E-1	4.239580E-6
5.600000E-1	5.118870E-6
5.650000E-1	6.043320E-6
5.700000E-1	6.999160E-6
5.750000E-1	8.002660E-6
5.800000E-1	9.042110E-6
5.850000E-1	1.014900E-5
5.900000E-1	1.129410E-5
5.950000E-1	1.250310E-5
6.000000E-1	1.378430E-5
6.050000E-1	1.512790E-5
6.100000E-1	1.654550E-5
6.150000E-1	1.804820E-5
6.200000E-1	1.962860E-5
6.250000E-1	2.129870E-5
6.300000E-1	2.305930E-5
6.350000E-1	2.489720E-5
6.400000E-1	2.684070E-5
6.450000E-1	2.887580E-5
6.500000E-1	3.102260E-5
6.550000E-1	3.326260E-5
6.600000E-1	3.562560E-5
6.650000E-1	3.809970E-5
6.700000E-1	4.068790E-5
6.750000E-1	4.339070E-5
6.800000E-1	4.622150E-5
6.850000E-1	4.917060E-5
6.900000E-1	5.225800E-5
6.950000E-1	5.547870E-5
7.000000E-1	5.882710E-5
7.050000E-1	6.228930E-5
7.100000E-1	6.588480E-5
7.150000E-1	6.962970E-5
7.200000E-1	7.350690E-5
7.250000E-1	7.751080E-5
7.300000E-1	8.164050E-5
7.350000E-1	8.590590E-5
7.400000E-1	9.032350E-5
7.450000E-1	9.486030E-5
7.500000E-1	9.954470E-5
7.550000E-1	1.043380E-4
7.600000E-1	1.092510E-4
7.650000E-1	1.143260E-4
7.700000E-1	1.195140E-4
7.750000E-1	1.248160E-4
7.800000E-1	1.302430E-4
7.850000E-1	1.357730E-4
7.900000E-1	1.414660E-4
7.950000E-1	1.472560E-4
8.000000E-1	1.531590E-4
