Voltage [V]	Current [A]
-2.000000E-1	-2.040840E-5
-1.950000E-1	-2.035520E-5
-1.900000E-1	-2.027890E-5
-1.850000E-1	-2.017860E-5
-1.800000E-1	-2.018950E-5
-1.750000E-1	-2.011840E-5
-1.700000E-1	-2.005260E-5
-1.650000E-1	-1.999550E-5
-1.600000E-1	-1.992850E-5
-1.550000E-1	-1.986610E-5
-1.500000E-1	-1.980350E-5
-1.450000E-1	-1.973770E-5
-1.400000E-1	-1.968100E-5
-1.350000E-1	-1.960710E-5
-1.300000E-1	-1.954270E-5
-1.250000E-1	-1.951240E-5
-1.200000E-1	-1.939660E-5
-1.150000E-1	-1.936150E-5
-1.100000E-1	-1.925530E-5
-1.050000E-1	-1.923070E-5
-1.000000E-1	-1.918060E-5
-9.500001E-2	-1.909130E-5
-9.000000E-2	-1.901570E-5
-8.500001E-2	-1.895970E-5
-8.000001E-2	-1.886350E-5
-7.500000E-2	-1.880570E-5
-7.000001E-2	-1.874290E-5
-6.500001E-2	-1.867750E-5
-6.000000E-2	-1.862040E-5
-5.500001E-2	-1.856030E-5
-5.000001E-2	-1.846210E-5
-4.500000E-2	-1.836740E-5
-4.000001E-2	-1.827770E-5
-3.500001E-2	-1.823050E-5
-3.000000E-2	-1.817650E-5
-2.500001E-2	-1.806730E-5
-2.000001E-2	-1.801650E-5
-1.500000E-2	-1.794990E-5
-1.000001E-2	-1.785790E-5
-5.000010E-3	-1.775110E-5
-1.490116E-8	-1.768040E-5
4.999995E-3	-1.755410E-5
9.999990E-3	-1.746610E-5
1.499999E-2	-1.738980E-5
2.000000E-2	-1.726410E-5
2.499999E-2	-1.718290E-5
2.999999E-2	-1.707770E-5
3.500000E-2	-1.695410E-5
3.999999E-2	-1.692490E-5
4.499999E-2	-1.680760E-5
5.000000E-2	-1.668030E-5
5.499999E-2	-1.659770E-5
5.999999E-2	-1.645950E-5
6.499998E-2	-1.636170E-5
6.999998E-2	-1.622710E-5
7.500000E-2	-1.613240E-5
8.000000E-2	-1.601130E-5
8.499999E-2	-1.589650E-5
8.999999E-2	-1.575780E-5
9.499998E-2	-1.564360E-5
9.999998E-2	-1.547930E-5
1.050000E-1	-1.535570E-5
1.100000E-1	-1.523120E-5
1.150000E-1	-1.509640E-5
1.200000E-1	-1.496780E-5
1.250000E-1	-1.481510E-5
1.300000E-1	-1.464850E-5
1.350000E-1	-1.450190E-5
1.400000E-1	-1.434050E-5
1.450000E-1	-1.416790E-5
1.500000E-1	-1.403560E-5
1.550000E-1	-1.386670E-5
1.600000E-1	-1.369400E-5
1.650000E-1	-1.354060E-5
1.700000E-1	-1.333870E-5
1.750000E-1	-1.316770E-5
1.800000E-1	-1.300030E-5
1.850000E-1	-1.280730E-5
1.900000E-1	-1.262930E-5
1.950000E-1	-1.247170E-5
2.000000E-1	-1.228110E-5
2.050000E-1	-1.209430E-5
2.100000E-1	-1.188640E-5
2.150000E-1	-1.171880E-5
2.200000E-1	-1.149990E-5
2.250000E-1	-1.130330E-5
2.300000E-1	-1.111090E-5
2.350000E-1	-1.089390E-5
2.400000E-1	-1.066820E-5
2.450000E-1	-1.044680E-5
2.500000E-1	-1.024040E-5
2.550000E-1	-1.002560E-5
2.600000E-1	-9.782780E-6
2.650000E-1	-9.573390E-6
2.700000E-1	-9.356370E-6
2.750000E-1	-9.142140E-6
2.800000E-1	-8.933590E-6
2.850000E-1	-8.687270E-6
2.900000E-1	-8.468750E-6
2.950000E-1	-8.236150E-6
3.000000E-1	-8.002840E-6
3.050000E-1	-7.778980E-6
3.100000E-1	-7.524190E-6
3.150000E-1	-7.304680E-6
3.200000E-1	-7.058770E-6
3.250000E-1	-6.828090E-6
3.300000E-1	-6.579840E-6
3.350000E-1	-6.343500E-6
3.400000E-1	-6.103120E-6
3.450000E-1	-5.875450E-6
3.500000E-1	-5.642790E-6
3.550000E-1	-5.399590E-6
3.600000E-1	-5.174320E-6
3.650000E-1	-4.937810E-6
3.700000E-1	-4.705000E-6
3.750000E-1	-4.465740E-6
3.800000E-1	-4.227030E-6
3.850000E-1	-3.990060E-6
3.900000E-1	-3.744720E-6
3.950000E-1	-3.502480E-6
4.000000E-1	-3.272510E-6
4.050000E-1	-3.027300E-6
4.100000E-1	-2.784520E-6
4.150000E-1	-2.533180E-6
4.200000E-1	-2.288140E-6
4.250000E-1	-2.043510E-6
4.300000E-1	-1.794510E-6
4.350000E-1	-1.542870E-6
4.400000E-1	-1.292070E-6
4.450000E-1	-1.023350E-6
4.500000E-1	-7.590320E-7
4.550000E-1	-4.857600E-7
4.600000E-1	-2.115390E-7
4.650000E-1	2.924080E-8
4.700000E-1	3.768430E-7
4.750000E-1	6.681360E-7
4.800000E-1	9.792390E-7
4.850000E-1	1.304110E-6
4.900000E-1	1.637950E-6
4.950000E-1	1.991830E-6
5.000000E-1	2.355330E-6
5.050000E-1	2.737780E-6
5.100000E-1	3.145310E-6
5.150000E-1	3.568160E-6
5.200000E-1	4.011270E-6
5.250000E-1	4.476210E-6
5.300000E-1	4.978090E-6
5.350000E-1	5.503530E-6
5.400000E-1	6.063840E-6
5.450000E-1	6.652060E-6
5.500000E-1	7.284960E-6
5.550000E-1	7.953920E-6
5.600000E-1	8.659860E-6
5.650000E-1	9.417700E-6
5.700000E-1	1.022540E-5
5.750000E-1	1.107770E-5
5.800000E-1	1.198910E-5
5.850000E-1	1.295340E-5
5.900000E-1	1.397270E-5
5.950000E-1	1.506030E-5
6.000000E-1	1.621490E-5
6.050000E-1	1.744410E-5
6.100000E-1	1.874720E-5
6.150000E-1	2.013210E-5
6.200000E-1	2.159500E-5
6.250000E-1	2.314310E-5
6.300000E-1	2.478170E-5
6.350000E-1	2.649920E-5
6.400000E-1	2.831900E-5
6.450000E-1	3.022650E-5
6.500000E-1	3.224450E-5
6.550000E-1	3.436390E-5
6.600000E-1	3.659620E-5
6.650000E-1	3.893560E-5
6.700000E-1	4.138730E-5
6.750000E-1	4.395990E-5
6.800000E-1	4.663620E-5
6.850000E-1	4.942520E-5
6.900000E-1	5.233110E-5
6.950000E-1	5.535450E-5
7.000000E-1	5.850520E-5
7.050000E-1	6.176890E-5
7.100000E-1	6.515570E-5
7.150000E-1	6.866960E-5
7.200000E-1	7.232170E-5
7.250000E-1	7.610530E-5
7.300000E-1	8.000070E-5
7.350000E-1	8.403780E-5
7.400000E-1	8.817930E-5
7.450000E-1	9.244420E-5
7.500000E-1	9.683620E-5
7.550000E-1	1.013460E-4
7.600000E-1	1.059720E-4
7.650000E-1	1.107280E-4
7.700000E-1	1.156070E-4
7.750000E-1	1.206260E-4
7.800000E-1	1.257460E-4
7.850000E-1	1.310030E-4
7.900000E-1	1.363530E-4
7.950000E-1	1.418210E-4
8.000000E-1	1.473880E-4
