Voltage [V]	Current [A]
-2.000000E-1	-3.862100E-5
-1.950000E-1	-3.845450E-5
-1.900000E-1	-3.841690E-5
-1.850000E-1	-3.824870E-5
-1.800000E-1	-3.809540E-5
-1.750000E-1	-3.796490E-5
-1.700000E-1	-3.790740E-5
-1.650000E-1	-3.773560E-5
-1.600000E-1	-3.758080E-5
-1.550000E-1	-3.751750E-5
-1.500000E-1	-3.739740E-5
-1.450000E-1	-3.726640E-5
-1.400000E-1	-3.713410E-5
-1.350000E-1	-3.708430E-5
-1.300000E-1	-3.692930E-5
-1.250000E-1	-3.675970E-5
-1.200000E-1	-3.667250E-5
-1.150000E-1	-3.652620E-5
-1.100000E-1	-3.643490E-5
-1.050000E-1	-3.633820E-5
-1.000000E-1	-3.622330E-5
-9.500001E-2	-3.608440E-5
-9.000000E-2	-3.596240E-5
-8.500001E-2	-3.584250E-5
-8.000001E-2	-3.563050E-5
-7.500000E-2	-3.549900E-5
-7.000001E-2	-3.540480E-5
-6.500001E-2	-3.531370E-5
-6.000000E-2	-3.509570E-5
-5.500001E-2	-3.498860E-5
-5.000001E-2	-3.486150E-5
-4.500000E-2	-3.462410E-5
-4.000001E-2	-3.448580E-5
-3.500001E-2	-3.435470E-5
-3.000000E-2	-3.415730E-5
-2.500001E-2	-3.402790E-5
-2.000001E-2	-3.390380E-5
-1.500000E-2	-3.380430E-5
-1.000001E-2	-3.357220E-5
-5.000010E-3	-3.339060E-5
-1.490116E-8	-3.319360E-5
4.999995E-3	-3.296270E-5
9.999990E-3	-3.283750E-5
1.499999E-2	-3.260660E-5
2.000000E-2	-3.243200E-5
2.499999E-2	-3.224070E-5
2.999999E-2	-3.206770E-5
3.500000E-2	-3.187730E-5
3.999999E-2	-3.168950E-5
4.499999E-2	-3.148970E-5
5.000000E-2	-3.130320E-5
5.499999E-2	-3.107720E-5
5.999999E-2	-3.088500E-5
6.499998E-2	-3.063000E-5
6.999998E-2	-3.044150E-5
7.500000E-2	-3.017320E-5
8.000000E-2	-2.995810E-5
8.499999E-2	-2.969280E-5
8.999999E-2	-2.945880E-5
9.499998E-2	-2.918440E-5
9.999998E-2	-2.898160E-5
1.050000E-1	-2.869310E-5
1.100000E-1	-2.843080E-5
1.150000E-1	-2.820210E-5
1.200000E-1	-2.797060E-5
1.250000E-1	-2.762630E-5
1.300000E-1	-2.738500E-5
1.350000E-1	-2.709350E-5
1.400000E-1	-2.680850E-5
1.450000E-1	-2.647070E-5
1.500000E-1	-2.618390E-5
1.550000E-1	-2.589700E-5
1.600000E-1	-2.558750E-5
1.650000E-1	-2.523750E-5
1.700000E-1	-2.492000E-5
1.750000E-1	-2.462580E-5
1.800000E-1	-2.428090E-5
1.850000E-1	-2.396090E-5
1.900000E-1	-2.356360E-5
1.950000E-1	-2.320190E-5
2.000000E-1	-2.294020E-5
2.050000E-1	-2.251010E-5
2.100000E-1	-2.214590E-5
2.150000E-1	-2.180970E-5
2.200000E-1	-2.140990E-5
2.250000E-1	-2.105010E-5
2.300000E-1	-2.062810E-5
2.350000E-1	-2.020560E-5
2.400000E-1	-1.987010E-5
2.450000E-1	-1.950180E-5
2.500000E-1	-1.905140E-5
2.550000E-1	-1.866590E-5
2.600000E-1	-1.825050E-5
2.650000E-1	-1.785410E-5
2.700000E-1	-1.745790E-5
2.750000E-1	-1.703910E-5
2.800000E-1	-1.665330E-5
2.850000E-1	-1.619650E-5
2.900000E-1	-1.579330E-5
2.950000E-1	-1.539150E-5
3.000000E-1	-1.497960E-5
3.050000E-1	-1.455640E-5
3.100000E-1	-1.410370E-5
3.150000E-1	-1.368680E-5
3.200000E-1	-1.327340E-5
3.250000E-1	-1.287100E-5
3.300000E-1	-1.243010E-5
3.350000E-1	-1.199210E-5
3.400000E-1	-1.162540E-5
3.450000E-1	-1.118640E-5
3.500000E-1	-1.080420E-5
3.550000E-1	-1.037920E-5
3.600000E-1	-9.950350E-6
3.650000E-1	-9.572310E-6
3.700000E-1	-9.169910E-6
3.750000E-1	-8.753680E-6
3.800000E-1	-8.364090E-6
3.850000E-1	-7.957170E-6
3.900000E-1	-7.601490E-6
3.950000E-1	-7.192490E-6
4.000000E-1	-6.791050E-6
4.050000E-1	-6.401350E-6
4.100000E-1	-6.019890E-6
4.150000E-1	-5.612140E-6
4.200000E-1	-5.250940E-6
4.250000E-1	-4.854150E-6
4.300000E-1	-4.484310E-6
4.350000E-1	-4.104830E-6
4.400000E-1	-3.718680E-6
4.450000E-1	-3.326340E-6
4.500000E-1	-2.942560E-6
4.550000E-1	-2.570020E-6
4.600000E-1	-2.187740E-6
4.650000E-1	-1.779440E-6
4.700000E-1	-1.365660E-6
4.750000E-1	-9.659130E-7
4.800000E-1	-5.745400E-7
4.850000E-1	-1.446330E-7
4.900000E-1	2.831500E-7
4.950000E-1	7.163410E-7
5.000000E-1	1.179080E-6
5.050000E-1	1.662450E-6
5.100000E-1	2.145380E-6
5.150000E-1	2.649040E-6
5.200000E-1	3.174930E-6
5.250000E-1	3.692180E-6
5.300000E-1	4.272690E-6
5.350000E-1	4.873340E-6
5.400000E-1	5.518230E-6
5.450000E-1	6.183290E-6
5.500000E-1	6.877570E-6
5.550000E-1	7.614360E-6
5.600000E-1	8.397020E-6
5.650000E-1	9.225700E-6
5.700000E-1	1.008630E-5
5.750000E-1	1.102980E-5
5.800000E-1	1.203960E-5
5.850000E-1	1.307270E-5
5.900000E-1	1.418270E-5
5.950000E-1	1.535560E-5
6.000000E-1	1.661160E-5
6.050000E-1	1.791960E-5
6.100000E-1	1.932010E-5
6.150000E-1	2.078800E-5
6.200000E-1	2.234890E-5
6.250000E-1	2.399570E-5
6.300000E-1	2.573770E-5
6.350000E-1	2.756380E-5
6.400000E-1	2.950310E-5
6.450000E-1	3.153050E-5
6.500000E-1	3.373830E-5
6.550000E-1	3.597650E-5
6.600000E-1	3.834900E-5
6.650000E-1	4.081170E-5
6.700000E-1	4.340740E-5
6.750000E-1	4.608670E-5
6.800000E-1	4.890220E-5
6.850000E-1	5.184800E-5
6.900000E-1	5.490790E-5
6.950000E-1	5.808240E-5
7.000000E-1	6.140170E-5
7.050000E-1	6.482040E-5
7.100000E-1	6.836960E-5
7.150000E-1	7.208330E-5
7.200000E-1	7.589580E-5
7.250000E-1	7.983610E-5
7.300000E-1	8.390790E-5
7.350000E-1	8.810950E-5
7.400000E-1	9.243450E-5
7.450000E-1	9.689480E-5
7.500000E-1	1.014730E-4
7.550000E-1	1.061660E-4
7.600000E-1	1.109770E-4
7.650000E-1	1.159450E-4
7.700000E-1	1.209940E-4
7.750000E-1	1.261830E-4
7.800000E-1	1.315080E-4
7.850000E-1	1.369760E-4
7.900000E-1	1.425110E-4
7.950000E-1	1.481620E-4
8.000000E-1	1.539440E-4
