Voltage [V]	Current [A]
-2.000000E-1	-5.718300E-6
-1.950000E-1	-5.707170E-6
-1.900000E-1	-5.683630E-6
-1.850000E-1	-5.669230E-6
-1.800000E-1	-5.644660E-6
-1.750000E-1	-5.638030E-6
-1.700000E-1	-5.622280E-6
-1.650000E-1	-5.610960E-6
-1.600000E-1	-5.587500E-6
-1.550000E-1	-5.571450E-6
-1.500000E-1	-5.558410E-6
-1.450000E-1	-5.540670E-6
-1.400000E-1	-5.509950E-6
-1.350000E-1	-5.493750E-6
-1.300000E-1	-5.473000E-6
-1.250000E-1	-5.460060E-6
-1.200000E-1	-5.442890E-6
-1.150000E-1	-5.428950E-6
-1.100000E-1	-5.407630E-6
-1.050000E-1	-5.386580E-6
-1.000000E-1	-5.365510E-6
-9.500001E-2	-5.357940E-6
-9.000000E-2	-5.342600E-6
-8.500001E-2	-5.309870E-6
-8.000001E-2	-5.298340E-6
-7.500000E-2	-5.287540E-6
-7.000001E-2	-5.255180E-6
-6.500001E-2	-5.238760E-6
-6.000000E-2	-5.223310E-6
-5.500001E-2	-5.202470E-6
-5.000001E-2	-5.177230E-6
-4.500000E-2	-5.168410E-6
-4.000001E-2	-5.145820E-6
-3.500001E-2	-5.127030E-6
-3.000000E-2	-5.106960E-6
-2.500001E-2	-5.087960E-6
-2.000001E-2	-5.069160E-6
-1.500000E-2	-5.037180E-6
-1.000001E-2	-5.000990E-6
-5.000010E-3	-4.987120E-6
-1.490116E-8	-4.968170E-6
4.999995E-3	-4.923460E-6
9.999990E-3	-4.910630E-6
1.499999E-2	-4.885150E-6
2.000000E-2	-4.863450E-6
2.499999E-2	-4.836740E-6
2.999999E-2	-4.815150E-6
3.500000E-2	-4.782990E-6
3.999999E-2	-4.753500E-6
4.499999E-2	-4.728800E-6
5.000000E-2	-4.701630E-6
5.499999E-2	-4.664690E-6
5.999999E-2	-4.642690E-6
6.499998E-2	-4.603310E-6
6.999998E-2	-4.565940E-6
7.500000E-2	-4.534180E-6
8.000000E-2	-4.510480E-6
8.499999E-2	-4.477110E-6
8.999999E-2	-4.441650E-6
9.499998E-2	-4.399150E-6
9.999998E-2	-4.374240E-6
1.050000E-1	-4.335140E-6
1.100000E-1	-4.303460E-6
1.150000E-1	-4.261990E-6
1.200000E-1	-4.213920E-6
1.250000E-1	-4.178280E-6
1.300000E-1	-4.135690E-6
1.350000E-1	-4.096020E-6
1.400000E-1	-4.060400E-6
1.450000E-1	-4.011190E-6
1.500000E-1	-3.968560E-6
1.550000E-1	-3.927130E-6
1.600000E-1	-3.878690E-6
1.650000E-1	-3.834210E-6
1.700000E-1	-3.787150E-6
1.750000E-1	-3.736090E-6
1.800000E-1	-3.687430E-6
1.850000E-1	-3.634590E-6
1.900000E-1	-3.586530E-6
1.950000E-1	-3.526430E-6
2.000000E-1	-3.479500E-6
2.050000E-1	-3.419160E-6
2.100000E-1	-3.365410E-6
2.150000E-1	-3.305480E-6
2.200000E-1	-3.247690E-6
2.250000E-1	-3.191130E-6
2.300000E-1	-3.126470E-6
2.350000E-1	-3.070420E-6
2.400000E-1	-3.003950E-6
2.450000E-1	-2.936530E-6
2.500000E-1	-2.866770E-6
2.550000E-1	-2.801710E-6
2.600000E-1	-2.742970E-6
2.650000E-1	-2.666110E-6
2.700000E-1	-2.598960E-6
2.750000E-1	-2.532230E-6
2.800000E-1	-2.459740E-6
2.850000E-1	-2.387520E-6
2.900000E-1	-2.313150E-6
2.950000E-1	-2.241090E-6
3.000000E-1	-2.166710E-6
3.050000E-1	-2.089290E-6
3.100000E-1	-2.011480E-6
3.150000E-1	-1.933980E-6
3.200000E-1	-1.850020E-6
3.250000E-1	-1.769000E-6
3.300000E-1	-1.690400E-6
3.350000E-1	-1.611440E-6
3.400000E-1	-1.520520E-6
3.450000E-1	-1.434010E-6
3.500000E-1	-1.348500E-6
3.550000E-1	-1.261520E-6
3.600000E-1	-1.164740E-6
3.650000E-1	-1.075790E-6
3.700000E-1	-9.775580E-7
3.750000E-1	-8.823400E-7
3.800000E-1	-7.808320E-7
3.850000E-1	-6.825430E-7
3.900000E-1	-5.784360E-7
3.950000E-1	-4.731250E-7
4.000000E-1	-3.646560E-7
4.050000E-1	-2.498220E-7
4.100000E-1	-1.332050E-7
4.150000E-1	6.026030E-10
4.200000E-1	4.609230E-8
4.250000E-1	2.506280E-7
4.300000E-1	3.833200E-7
4.350000E-1	5.261100E-7
4.400000E-1	6.714710E-7
4.450000E-1	8.273730E-7
4.500000E-1	9.877810E-7
4.550000E-1	1.157450E-6
4.600000E-1	1.337580E-6
4.650000E-1	1.527730E-6
4.700000E-1	1.729070E-6
4.750000E-1	1.937440E-6
4.800000E-1	2.162890E-6
4.850000E-1	2.399080E-6
4.900000E-1	2.650710E-6
4.950000E-1	2.918160E-6
5.000000E-1	3.203840E-6
5.050000E-1	3.509810E-6
5.100000E-1	3.826270E-6
5.150000E-1	4.167530E-6
5.200000E-1	4.538770E-6
5.250000E-1	4.933240E-6
5.300000E-1	5.345320E-6
5.350000E-1	5.790430E-6
5.400000E-1	6.268130E-6
5.450000E-1	6.772530E-6
5.500000E-1	7.316180E-6
5.550000E-1	7.902610E-6
5.600000E-1	8.517330E-6
5.650000E-1	9.180180E-6
5.700000E-1	9.886150E-6
5.750000E-1	1.064400E-5
5.800000E-1	1.143860E-5
5.850000E-1	1.229750E-5
5.900000E-1	1.320950E-5
5.950000E-1	1.417940E-5
6.000000E-1	1.521030E-5
6.050000E-1	1.630670E-5
6.100000E-1	1.746740E-5
6.150000E-1	1.870750E-5
6.200000E-1	2.002100E-5
6.250000E-1	2.140910E-5
6.300000E-1	2.288640E-5
6.350000E-1	2.444000E-5
6.400000E-1	2.607970E-5
6.450000E-1	2.780570E-5
6.500000E-1	2.963460E-5
6.550000E-1	3.155720E-5
6.600000E-1	3.358460E-5
6.650000E-1	3.570830E-5
6.700000E-1	3.794670E-5
6.750000E-1	4.027750E-5
6.800000E-1	4.272920E-5
6.850000E-1	4.529480E-5
6.900000E-1	4.796440E-5
6.950000E-1	5.075400E-5
7.000000E-1	5.367350E-5
7.050000E-1	5.667640E-5
7.100000E-1	5.983070E-5
7.150000E-1	6.309470E-5
7.200000E-1	6.649280E-5
7.250000E-1	7.000040E-5
7.300000E-1	7.363710E-5
7.350000E-1	7.739720E-5
7.400000E-1	8.128270E-5
7.450000E-1	8.530180E-5
7.500000E-1	8.943430E-5
7.550000E-1	9.370160E-5
7.600000E-1	9.808360E-5
7.650000E-1	1.026040E-4
7.700000E-1	1.072000E-4
7.750000E-1	1.119530E-4
7.800000E-1	1.168090E-4
7.850000E-1	1.218010E-4
7.900000E-1	1.269090E-4
7.950000E-1	1.321120E-4
8.000000E-1	1.374340E-4
