Voltage [V]	Current [A]
-2.000000E-1	-1.014950E-5
-1.950000E-1	-9.594120E-6
-1.900000E-1	-9.556080E-6
-1.850000E-1	-9.183360E-6
-1.800000E-1	-9.207990E-6
-1.750000E-1	-8.677970E-6
-1.700000E-1	-8.439930E-6
-1.650000E-1	-8.138550E-6
-1.600000E-1	-7.733450E-6
-1.550000E-1	-7.633620E-6
-1.500000E-1	-7.444430E-6
-1.450000E-1	-7.029380E-6
-1.400000E-1	-6.652980E-6
-1.350000E-1	-6.512770E-6
-1.300000E-1	-6.267170E-6
-1.250000E-1	-5.918330E-6
-1.200000E-1	-5.952330E-6
-1.150000E-1	-5.810370E-6
-1.100000E-1	-5.458380E-6
-1.050000E-1	-5.275810E-6
-1.000000E-1	-4.935780E-6
-9.500001E-2	-4.742050E-6
-9.000000E-2	-4.426390E-6
-8.500001E-2	-4.169880E-6
-8.000001E-2	-3.963120E-6
-7.500000E-2	-3.621200E-6
-7.000001E-2	-3.440810E-6
-6.500001E-2	-3.240320E-6
-6.000000E-2	-2.981430E-6
-5.500001E-2	-2.710670E-6
-5.000001E-2	-2.454180E-6
-4.500000E-2	-2.185340E-6
-4.000001E-2	-1.963570E-6
-3.500001E-2	-1.691930E-6
-3.000000E-2	-1.488360E-6
-2.500001E-2	-1.229890E-6
-2.000001E-2	-9.822770E-7
-1.500000E-2	-7.316130E-7
-1.000001E-2	-4.953750E-7
-5.000010E-3	-2.437000E-7
-1.490116E-8	2.405870E-9
4.999995E-3	2.413700E-7
9.999990E-3	4.861210E-7
1.499999E-2	7.246920E-7
2.000000E-2	9.681730E-7
2.499999E-2	1.226400E-6
2.999999E-2	1.454320E-6
3.500000E-2	1.704510E-6
3.999999E-2	1.950940E-6
4.499999E-2	2.202300E-6
5.000000E-2	2.432440E-6
5.499999E-2	2.767640E-6
5.999999E-2	2.889930E-6
6.499998E-2	3.169050E-6
6.999998E-2	3.538950E-6
7.500000E-2	3.778990E-6
8.000000E-2	4.035500E-6
8.499999E-2	4.469780E-6
8.999999E-2	4.592000E-6
9.499998E-2	4.828440E-6
9.999998E-2	5.059780E-6
1.050000E-1	5.241480E-6
1.100000E-1	5.803070E-6
1.150000E-1	5.926760E-6
1.200000E-1	6.228860E-6
1.250000E-1	6.680150E-6
1.300000E-1	6.782880E-6
1.350000E-1	7.082170E-6
1.400000E-1	7.511890E-6
1.450000E-1	7.407860E-6
1.500000E-1	7.789530E-6
1.550000E-1	8.524100E-6
1.600000E-1	8.718040E-6
1.650000E-1	8.948270E-6
1.700000E-1	9.132230E-6
1.750000E-1	9.345810E-6
1.800000E-1	9.511860E-6
1.850000E-1	1.016610E-5
1.900000E-1	1.056100E-5
1.950000E-1	1.069290E-5
2.000000E-1	1.106730E-5
2.050000E-1	1.155840E-5
2.100000E-1	1.213790E-5
2.150000E-1	1.205270E-5
2.200000E-1	1.240870E-5
2.250000E-1	1.273490E-5
2.300000E-1	1.314740E-5
2.350000E-1	1.371790E-5
2.400000E-1	1.392180E-5
2.450000E-1	1.444310E-5
2.500000E-1	1.568010E-5
2.550000E-1	1.643630E-5
2.600000E-1	1.616650E-5
2.650000E-1	1.665720E-5
2.700000E-1	1.686680E-5
2.750000E-1	1.685300E-5
2.800000E-1	1.733980E-5
2.850000E-1	1.762320E-5
2.900000E-1	1.800900E-5
2.950000E-1	1.813940E-5
3.000000E-1	1.878930E-5
3.050000E-1	1.902150E-5
3.100000E-1	1.952260E-5
3.150000E-1	2.023300E-5
3.200000E-1	2.037960E-5
3.250000E-1	2.064680E-5
3.300000E-1	2.070470E-5
3.350000E-1	2.134850E-5
3.400000E-1	2.156430E-5
3.450000E-1	2.226940E-5
3.500000E-1	2.229150E-5
3.550000E-1	2.255650E-5
3.600000E-1	2.379710E-5
3.650000E-1	2.413620E-5
3.700000E-1	2.404290E-5
3.750000E-1	2.516840E-5
3.800000E-1	2.491330E-5
3.850000E-1	2.530510E-5
3.900000E-1	2.543110E-5
3.950000E-1	2.534270E-5
4.000000E-1	2.585880E-5
4.050000E-1	2.602610E-5
4.100000E-1	2.631150E-5
4.150000E-1	2.709370E-5
4.200000E-1	2.756390E-5
4.250000E-1	2.772690E-5
4.300000E-1	2.829690E-5
4.350000E-1	2.942940E-5
4.400000E-1	2.975670E-5
4.450000E-1	2.999810E-5
4.500000E-1	3.118410E-5
4.550000E-1	3.012330E-5
4.600000E-1	3.007220E-5
4.650000E-1	3.175840E-5
4.700000E-1	3.083410E-5
4.750000E-1	3.222250E-5
4.800000E-1	3.419800E-5
4.850000E-1	3.732010E-5
4.900000E-1	4.111080E-5
4.950000E-1	4.047900E-5
5.000000E-1	4.068490E-5
5.050000E-1	4.020230E-5
5.100000E-1	3.968250E-5
5.150000E-1	4.115700E-5
5.200000E-1	4.229640E-5
5.250000E-1	4.263500E-5
5.300000E-1	4.379490E-5
5.350000E-1	4.390730E-5
5.400000E-1	4.489370E-5
5.450000E-1	4.486930E-5
5.500000E-1	4.554640E-5
5.550000E-1	4.425250E-5
5.600000E-1	4.625470E-5
5.650000E-1	4.761770E-5
5.700000E-1	4.789940E-5
5.750000E-1	4.961940E-5
5.800000E-1	5.113340E-5
5.850000E-1	5.063820E-5
5.900000E-1	5.338460E-5
5.950000E-1	5.324310E-5
6.000000E-1	5.397350E-5
6.050000E-1	5.609660E-5
6.100000E-1	5.758140E-5
6.150000E-1	5.910350E-5
6.200000E-1	6.051570E-5
6.250000E-1	6.236840E-5
6.300000E-1	6.424040E-5
6.350000E-1	6.518160E-5
6.400000E-1	6.768760E-5
6.450000E-1	6.874380E-5
6.500000E-1	6.918410E-5
6.550000E-1	7.407870E-5
6.600000E-1	7.455610E-5
6.650000E-1	7.756690E-5
6.700000E-1	8.138100E-5
6.750000E-1	8.300800E-5
6.800000E-1	8.504570E-5
6.850000E-1	8.963240E-5
6.900000E-1	9.209110E-5
6.950000E-1	9.267380E-5
7.000000E-1	9.586450E-5
7.050000E-1	9.795490E-5
7.100000E-1	1.015200E-4
7.150000E-1	1.050890E-4
7.200000E-1	1.070900E-4
7.250000E-1	1.107660E-4
7.300000E-1	1.140310E-4
7.350000E-1	1.170300E-4
7.400000E-1	1.203960E-4
7.450000E-1	1.241940E-4
7.500000E-1	1.278180E-4
7.550000E-1	1.318600E-4
7.600000E-1	1.344850E-4
7.650000E-1	1.391970E-4
7.700000E-1	1.525500E-4
7.750000E-1	1.572700E-4
7.800000E-1	1.605050E-4
7.850000E-1	1.644580E-4
7.900000E-1	1.695670E-4
7.950000E-1	1.716350E-4
8.000000E-1	1.786350E-4
