Voltage [V]	Current [A]
-2.000000E-1	-1.125390E-4
-1.950000E-1	-1.117120E-4
-1.900000E-1	-1.113140E-4
-1.850000E-1	-1.109580E-4
-1.800000E-1	-1.101730E-4
-1.750000E-1	-1.092930E-4
-1.700000E-1	-1.086870E-4
-1.650000E-1	-1.081850E-4
-1.600000E-1	-1.075230E-4
-1.550000E-1	-1.072760E-4
-1.500000E-1	-1.047710E-4
-1.450000E-1	-1.042800E-4
-1.400000E-1	-1.040440E-4
-1.350000E-1	-1.034330E-4
-1.300000E-1	-1.032940E-4
-1.250000E-1	-1.024990E-4
-1.200000E-1	-1.018620E-4
-1.150000E-1	-1.013330E-4
-1.100000E-1	-1.007500E-4
-1.050000E-1	-1.002850E-4
-1.000000E-1	-9.973310E-5
-9.500001E-2	-9.909230E-5
-9.000000E-2	-9.848750E-5
-8.500001E-2	-9.809970E-5
-8.000001E-2	-9.772660E-5
-7.500000E-2	-9.714740E-5
-7.000001E-2	-9.665830E-5
-6.500001E-2	-9.611070E-5
-6.000000E-2	-9.565180E-5
-5.500001E-2	-9.505270E-5
-5.000001E-2	-9.460600E-5
-4.500000E-2	-9.397490E-5
-4.000001E-2	-9.332960E-5
-3.500001E-2	-9.290590E-5
-3.000000E-2	-9.226910E-5
-2.500001E-2	-9.199040E-5
-2.000001E-2	-9.131190E-5
-1.500000E-2	-9.087900E-5
-1.000001E-2	-9.018940E-5
-5.000010E-3	-8.989660E-5
-1.490116E-8	-8.931020E-5
4.999995E-3	-8.853210E-5
9.999990E-3	-8.805520E-5
1.499999E-2	-8.754710E-5
2.000000E-2	-8.686710E-5
2.499999E-2	-8.630560E-5
2.999999E-2	-8.572770E-5
3.500000E-2	-8.526080E-5
3.999999E-2	-8.469580E-5
4.499999E-2	-8.411710E-5
5.000000E-2	-8.350220E-5
5.499999E-2	-8.295410E-5
5.999999E-2	-8.221900E-5
6.499998E-2	-8.168230E-5
6.999998E-2	-8.089160E-5
7.500000E-2	-8.010250E-5
8.000000E-2	-7.965720E-5
8.499999E-2	-7.930890E-5
8.999999E-2	-7.841350E-5
9.499998E-2	-7.784620E-5
9.999998E-2	-7.729680E-5
1.050000E-1	-7.661780E-5
1.100000E-1	-7.575140E-5
1.150000E-1	-7.508970E-5
1.200000E-1	-7.443280E-5
1.250000E-1	-7.407080E-5
1.300000E-1	-7.302880E-5
1.350000E-1	-7.235890E-5
1.400000E-1	-7.189990E-5
1.450000E-1	-7.095730E-5
1.500000E-1	-7.012920E-5
1.550000E-1	-6.970890E-5
1.600000E-1	-6.869140E-5
1.650000E-1	-6.772670E-5
1.700000E-1	-6.692420E-5
1.750000E-1	-6.619770E-5
1.800000E-1	-6.598280E-5
1.850000E-1	-6.512660E-5
1.900000E-1	-6.399680E-5
1.950000E-1	-6.340460E-5
2.000000E-1	-6.230780E-5
2.050000E-1	-6.142400E-5
2.100000E-1	-6.058620E-5
2.150000E-1	-5.977060E-5
2.200000E-1	-5.897730E-5
2.250000E-1	-5.804060E-5
2.300000E-1	-5.701800E-5
2.350000E-1	-5.595800E-5
2.400000E-1	-5.521970E-5
2.450000E-1	-5.379660E-5
2.500000E-1	-5.239320E-5
2.550000E-1	-5.163560E-5
2.600000E-1	-5.083100E-5
2.650000E-1	-4.976340E-5
2.700000E-1	-4.877290E-5
2.750000E-1	-4.741040E-5
2.800000E-1	-4.629980E-5
2.850000E-1	-4.474100E-5
2.900000E-1	-4.348100E-5
2.950000E-1	-4.219050E-5
3.000000E-1	-4.119000E-5
3.050000E-1	-4.017700E-5
3.100000E-1	-3.886350E-5
3.150000E-1	-3.721610E-5
3.200000E-1	-3.557990E-5
3.250000E-1	-3.438510E-5
3.300000E-1	-3.294860E-5
3.350000E-1	-3.131770E-5
3.400000E-1	-2.906930E-5
3.450000E-1	-2.880920E-5
3.500000E-1	-2.708730E-5
3.550000E-1	-2.548630E-5
3.600000E-1	-2.363940E-5
3.650000E-1	-2.240190E-5
3.700000E-1	-2.019740E-5
3.750000E-1	-1.885600E-5
3.800000E-1	-1.764380E-5
3.850000E-1	-1.522990E-5
3.900000E-1	-1.399780E-5
3.950000E-1	-1.275140E-5
4.000000E-1	-1.139620E-5
4.050000E-1	-1.067450E-5
4.100000E-1	-8.897520E-6
4.150000E-1	-6.722180E-6
4.200000E-1	-2.866420E-6
4.250000E-1	2.612870E-7
4.300000E-1	5.695340E-7
4.350000E-1	2.939340E-6
4.400000E-1	4.994840E-6
4.450000E-1	5.825270E-6
4.500000E-1	7.871190E-6
4.550000E-1	8.648270E-6
4.600000E-1	1.118240E-5
4.650000E-1	1.524560E-5
4.700000E-1	1.822590E-5
4.750000E-1	1.969030E-5
4.800000E-1	2.767790E-5
4.850000E-1	2.621500E-5
4.900000E-1	2.929640E-5
4.950000E-1	3.006310E-5
5.000000E-1	2.340710E-5
5.050000E-1	2.814220E-5
5.100000E-1	2.967820E-5
5.150000E-1	3.456140E-5
5.200000E-1	3.022450E-5
5.250000E-1	3.388150E-5
5.300000E-1	3.566000E-5
5.350000E-1	3.624890E-5
5.400000E-1	3.737290E-5
5.450000E-1	4.168890E-5
5.500000E-1	4.436360E-5
5.550000E-1	3.926830E-5
5.600000E-1	4.244140E-5
5.650000E-1	4.588300E-5
5.700000E-1	4.684360E-5
5.750000E-1	4.863610E-5
5.800000E-1	5.250670E-5
5.850000E-1	5.556920E-5
5.900000E-1	7.000470E-5
5.950000E-1	7.217890E-5
6.000000E-1	7.432840E-5
6.050000E-1	7.566460E-5
6.100000E-1	7.696280E-5
6.150000E-1	7.346190E-5
6.200000E-1	8.442980E-5
6.250000E-1	8.610850E-5
6.300000E-1	8.568680E-5
6.350000E-1	9.160000E-5
6.400000E-1	9.190670E-5
6.450000E-1	9.020450E-5
6.500000E-1	9.564790E-5
6.550000E-1	9.924840E-5
6.600000E-1	9.919100E-5
6.650000E-1	1.032530E-4
6.700000E-1	1.076810E-4
6.750000E-1	1.127300E-4
6.800000E-1	1.160860E-4
6.850000E-1	1.188100E-4
6.900000E-1	1.245190E-4
6.950000E-1	1.287840E-4
7.000000E-1	1.242650E-4
7.050000E-1	1.482990E-4
7.100000E-1	1.562580E-4
7.150000E-1	1.663300E-4
7.200000E-1	1.649490E-4
7.250000E-1	1.727340E-4
7.300000E-1	1.698590E-4
7.350000E-1	1.709980E-4
7.400000E-1	1.740700E-4
7.450000E-1	1.802500E-4
7.500000E-1	1.900450E-4
7.550000E-1	1.914300E-4
7.600000E-1	1.830190E-4
7.650000E-1	1.843410E-4
7.700000E-1	1.929230E-4
7.750000E-1	1.967620E-4
7.800000E-1	1.961660E-4
7.850000E-1	2.073800E-4
7.900000E-1	2.093130E-4
7.950000E-1	2.152420E-4
8.000000E-1	2.220650E-4
