Voltage [V]	Current [A]
-2.000000E-1	-9.681850E-5
-1.950000E-1	-9.625180E-5
-1.900000E-1	-9.575520E-5
-1.850000E-1	-9.496570E-5
-1.800000E-1	-9.398870E-5
-1.750000E-1	-9.370690E-5
-1.700000E-1	-9.294320E-5
-1.650000E-1	-9.241350E-5
-1.600000E-1	-9.198460E-5
-1.550000E-1	-9.155060E-5
-1.500000E-1	-9.094120E-5
-1.450000E-1	-9.053900E-5
-1.400000E-1	-8.998210E-5
-1.350000E-1	-8.944050E-5
-1.300000E-1	-8.871400E-5
-1.250000E-1	-8.802870E-5
-1.200000E-1	-8.754450E-5
-1.150000E-1	-8.711140E-5
-1.100000E-1	-8.653540E-5
-1.050000E-1	-8.609050E-5
-1.000000E-1	-8.553060E-5
-9.500001E-2	-8.476530E-5
-9.000000E-2	-8.431210E-5
-8.500001E-2	-8.370810E-5
-8.000001E-2	-8.326690E-5
-7.500000E-2	-8.268690E-5
-7.000001E-2	-8.218930E-5
-6.500001E-2	-8.161460E-5
-6.000000E-2	-8.112730E-5
-5.500001E-2	-8.056800E-5
-5.000001E-2	-7.995060E-5
-4.500000E-2	-7.958660E-5
-4.000001E-2	-7.880600E-5
-3.500001E-2	-7.851530E-5
-3.000000E-2	-7.789940E-5
-2.500001E-2	-7.727740E-5
-2.000001E-2	-7.678330E-5
-1.500000E-2	-7.612540E-5
-1.000001E-2	-7.564790E-5
-5.000010E-3	-7.512250E-5
-1.490116E-8	-7.462190E-5
4.999995E-3	-7.399750E-5
9.999990E-3	-7.339280E-5
1.499999E-2	-7.278550E-5
2.000000E-2	-7.228830E-5
2.499999E-2	-7.159460E-5
2.999999E-2	-7.108190E-5
3.500000E-2	-7.042970E-5
3.999999E-2	-6.996350E-5
4.499999E-2	-6.935570E-5
5.000000E-2	-6.874310E-5
5.499999E-2	-6.823350E-5
5.999999E-2	-6.742720E-5
6.499998E-2	-6.701290E-5
6.999998E-2	-6.630900E-5
7.500000E-2	-6.559540E-5
8.000000E-2	-6.489540E-5
8.499999E-2	-6.430500E-5
8.999999E-2	-6.363580E-5
9.499998E-2	-6.301750E-5
9.999998E-2	-6.234630E-5
1.050000E-1	-6.152860E-5
1.100000E-1	-6.100020E-5
1.150000E-1	-6.034280E-5
1.200000E-1	-5.952090E-5
1.250000E-1	-5.899500E-5
1.300000E-1	-5.820460E-5
1.350000E-1	-5.759560E-5
1.400000E-1	-5.721590E-5
1.450000E-1	-5.628570E-5
1.500000E-1	-5.551890E-5
1.550000E-1	-5.483200E-5
1.600000E-1	-5.382860E-5
1.650000E-1	-5.305920E-5
1.700000E-1	-5.246910E-5
1.750000E-1	-5.113060E-5
1.800000E-1	-4.936790E-5
1.850000E-1	-4.932750E-5
1.900000E-1	-4.837020E-5
1.950000E-1	-4.750790E-5
2.000000E-1	-4.634280E-5
2.050000E-1	-4.561530E-5
2.100000E-1	-4.479570E-5
2.150000E-1	-4.441780E-5
2.200000E-1	-4.332780E-5
2.250000E-1	-4.195950E-5
2.300000E-1	-4.110200E-5
2.350000E-1	-4.006010E-5
2.400000E-1	-3.856100E-5
2.450000E-1	-3.779380E-5
2.500000E-1	-3.686280E-5
2.550000E-1	-3.600570E-5
2.600000E-1	-3.484900E-5
2.650000E-1	-3.380990E-5
2.700000E-1	-3.229860E-5
2.750000E-1	-3.055230E-5
2.800000E-1	-2.951630E-5
2.850000E-1	-2.947220E-5
2.900000E-1	-2.850470E-5
2.950000E-1	-2.672660E-5
3.000000E-1	-2.542250E-5
3.050000E-1	-2.463150E-5
3.100000E-1	-2.377540E-5
3.150000E-1	-2.237110E-5
3.200000E-1	-2.134260E-5
3.250000E-1	-1.984030E-5
3.300000E-1	-1.820860E-5
3.350000E-1	-1.636670E-5
3.400000E-1	-1.450040E-5
3.450000E-1	-1.217450E-5
3.500000E-1	-1.013100E-5
3.550000E-1	-9.465590E-6
3.600000E-1	-8.431580E-6
3.650000E-1	-6.746090E-6
3.700000E-1	-5.081470E-6
3.750000E-1	-3.587700E-6
3.800000E-1	-1.946790E-6
3.850000E-1	-1.139460E-6
3.900000E-1	1.039350E-6
3.950000E-1	2.550720E-6
4.000000E-1	3.166860E-6
4.050000E-1	4.443430E-6
4.100000E-1	5.581120E-6
4.150000E-1	7.402450E-6
4.200000E-1	8.553960E-6
4.250000E-1	1.003910E-5
4.300000E-1	1.155250E-5
4.350000E-1	1.241310E-5
4.400000E-1	1.360950E-5
4.450000E-1	1.504420E-5
4.500000E-1	1.544640E-5
4.550000E-1	1.694740E-5
4.600000E-1	1.823450E-5
4.650000E-1	2.045850E-5
4.700000E-1	2.090720E-5
4.750000E-1	2.479140E-5
4.800000E-1	2.445640E-5
4.850000E-1	2.721160E-5
4.900000E-1	2.879800E-5
4.950000E-1	3.033270E-5
5.000000E-1	3.268820E-5
5.050000E-1	3.513300E-5
5.100000E-1	3.625260E-5
5.150000E-1	3.750100E-5
5.200000E-1	3.732250E-5
5.250000E-1	3.887210E-5
5.300000E-1	4.138390E-5
5.350000E-1	4.259820E-5
5.400000E-1	4.294900E-5
5.450000E-1	4.435170E-5
5.500000E-1	4.518410E-5
5.550000E-1	4.741840E-5
5.600000E-1	4.831560E-5
5.650000E-1	5.109270E-5
5.700000E-1	5.175820E-5
5.750000E-1	5.133840E-5
5.800000E-1	5.469150E-5
5.850000E-1	5.581900E-5
5.900000E-1	5.785540E-5
5.950000E-1	5.965670E-5
6.000000E-1	5.943140E-5
6.050000E-1	6.226120E-5
6.100000E-1	6.478880E-5
6.150000E-1	6.728190E-5
6.200000E-1	7.078070E-5
6.250000E-1	7.280000E-5
6.300000E-1	7.462340E-5
6.350000E-1	7.688470E-5
6.400000E-1	7.866910E-5
6.450000E-1	8.046950E-5
6.500000E-1	8.296560E-5
6.550000E-1	8.653630E-5
6.600000E-1	8.888900E-5
6.650000E-1	9.170690E-5
6.700000E-1	9.496630E-5
6.750000E-1	9.754680E-5
6.800000E-1	9.965480E-5
6.850000E-1	1.023150E-4
6.900000E-1	1.060690E-4
6.950000E-1	1.094330E-4
7.000000E-1	1.132620E-4
7.050000E-1	1.160800E-4
7.100000E-1	1.179730E-4
7.150000E-1	1.210050E-4
7.200000E-1	1.237850E-4
7.250000E-1	1.280570E-4
7.300000E-1	1.317490E-4
7.350000E-1	1.372270E-4
7.400000E-1	1.417200E-4
7.450000E-1	1.464480E-4
7.500000E-1	1.500710E-4
7.550000E-1	1.531540E-4
7.600000E-1	1.569650E-4
7.650000E-1	1.597240E-4
7.700000E-1	1.644230E-4
7.750000E-1	1.710670E-4
7.800000E-1	1.760090E-4
7.850000E-1	1.808820E-4
7.900000E-1	1.878840E-4
7.950000E-1	1.909460E-4
8.000000E-1	1.922300E-4
