Voltage [V]	Current [A]
-2.000000E-1	-5.820850E-5
-1.950000E-1	-5.770210E-5
-1.900000E-1	-5.715010E-5
-1.850000E-1	-5.644650E-5
-1.800000E-1	-5.600740E-5
-1.750000E-1	-5.554390E-5
-1.700000E-1	-5.573880E-5
-1.650000E-1	-5.540620E-5
-1.600000E-1	-5.455940E-5
-1.550000E-1	-5.423700E-5
-1.500000E-1	-5.385670E-5
-1.450000E-1	-5.333540E-5
-1.400000E-1	-5.307620E-5
-1.350000E-1	-5.281430E-5
-1.300000E-1	-5.222100E-5
-1.250000E-1	-5.197380E-5
-1.200000E-1	-5.147550E-5
-1.150000E-1	-5.105170E-5
-1.100000E-1	-5.065960E-5
-1.050000E-1	-5.017820E-5
-1.000000E-1	-4.990320E-5
-9.500001E-2	-4.942750E-5
-9.000000E-2	-4.898880E-5
-8.500001E-2	-4.873010E-5
-8.000001E-2	-4.820190E-5
-7.500000E-2	-4.780920E-5
-7.000001E-2	-4.737870E-5
-6.500001E-2	-4.705310E-5
-6.000000E-2	-4.662150E-5
-5.500001E-2	-4.622370E-5
-5.000001E-2	-4.593100E-5
-4.500000E-2	-4.548520E-5
-4.000001E-2	-4.511740E-5
-3.500001E-2	-4.473260E-5
-3.000000E-2	-4.421710E-5
-2.500001E-2	-4.384390E-5
-2.000001E-2	-4.342450E-5
-1.500000E-2	-4.303170E-5
-1.000001E-2	-4.259510E-5
-5.000010E-3	-4.224450E-5
-1.490116E-8	-4.190280E-5
4.999995E-3	-4.155530E-5
9.999990E-3	-4.118770E-5
1.499999E-2	-4.068720E-5
2.000000E-2	-4.024210E-5
2.499999E-2	-3.978280E-5
2.999999E-2	-3.950280E-5
3.500000E-2	-3.899580E-5
3.999999E-2	-3.859150E-5
4.499999E-2	-3.824360E-5
5.000000E-2	-3.780320E-5
5.499999E-2	-3.737780E-5
5.999999E-2	-3.697670E-5
6.499998E-2	-3.654040E-5
6.999998E-2	-3.611180E-5
7.500000E-2	-3.559740E-5
8.000000E-2	-3.505570E-5
8.499999E-2	-3.463450E-5
8.999999E-2	-3.423300E-5
9.499998E-2	-3.380490E-5
9.999998E-2	-3.341980E-5
1.050000E-1	-3.290580E-5
1.100000E-1	-3.237850E-5
1.150000E-1	-3.199990E-5
1.200000E-1	-3.143500E-5
1.250000E-1	-3.095140E-5
1.300000E-1	-3.027680E-5
1.350000E-1	-3.000060E-5
1.400000E-1	-2.964950E-5
1.450000E-1	-2.893710E-5
1.500000E-1	-2.843170E-5
1.550000E-1	-2.804160E-5
1.600000E-1	-2.736790E-5
1.650000E-1	-2.694970E-5
1.700000E-1	-2.642090E-5
1.750000E-1	-2.587450E-5
1.800000E-1	-2.523500E-5
1.850000E-1	-2.462970E-5
1.900000E-1	-2.385680E-5
1.950000E-1	-2.333450E-5
2.000000E-1	-2.280680E-5
2.050000E-1	-2.232100E-5
2.100000E-1	-2.176360E-5
2.150000E-1	-2.100540E-5
2.200000E-1	-2.027550E-5
2.250000E-1	-1.955260E-5
2.300000E-1	-1.917200E-5
2.350000E-1	-1.833480E-5
2.400000E-1	-1.737490E-5
2.450000E-1	-1.679290E-5
2.500000E-1	-1.612000E-5
2.550000E-1	-1.546430E-5
2.600000E-1	-1.460170E-5
2.650000E-1	-1.372470E-5
2.700000E-1	-1.286370E-5
2.750000E-1	-1.165190E-5
2.800000E-1	-1.113910E-5
2.850000E-1	-1.068430E-5
2.900000E-1	-9.801860E-6
2.950000E-1	-8.540110E-6
3.000000E-1	-7.895080E-6
3.050000E-1	-6.541020E-6
3.100000E-1	-6.234980E-6
3.150000E-1	-5.248540E-6
3.200000E-1	-4.520750E-6
3.250000E-1	-3.405200E-6
3.300000E-1	-2.116540E-6
3.350000E-1	-1.073050E-6
3.400000E-1	-8.714850E-7
3.450000E-1	3.055450E-7
3.500000E-1	1.014390E-6
3.550000E-1	2.525620E-6
3.600000E-1	2.930970E-6
3.650000E-1	4.121980E-6
3.700000E-1	5.828950E-6
3.750000E-1	6.736540E-6
3.800000E-1	7.274550E-6
3.850000E-1	9.151600E-6
3.900000E-1	1.074150E-5
3.950000E-1	1.158880E-5
4.000000E-1	1.237900E-5
4.050000E-1	1.297020E-5
4.100000E-1	1.407360E-5
4.150000E-1	1.572740E-5
4.200000E-1	1.704070E-5
4.250000E-1	1.765390E-5
4.300000E-1	1.897750E-5
4.350000E-1	2.046590E-5
4.400000E-1	2.094810E-5
4.450000E-1	2.243740E-5
4.500000E-1	2.299130E-5
4.550000E-1	2.387140E-5
4.600000E-1	2.506460E-5
4.650000E-1	2.628660E-5
4.700000E-1	2.808180E-5
4.750000E-1	2.920950E-5
4.800000E-1	2.988510E-5
4.850000E-1	3.018220E-5
4.900000E-1	3.252700E-5
4.950000E-1	3.143330E-5
5.000000E-1	3.226080E-5
5.050000E-1	3.385900E-5
5.100000E-1	3.550130E-5
5.150000E-1	3.707690E-5
5.200000E-1	3.728330E-5
5.250000E-1	3.838990E-5
5.300000E-1	3.759060E-5
5.350000E-1	3.979400E-5
5.400000E-1	4.147460E-5
5.450000E-1	4.344350E-5
5.500000E-1	4.489150E-5
5.550000E-1	4.547910E-5
5.600000E-1	4.827560E-5
5.650000E-1	4.927370E-5
5.700000E-1	5.119230E-5
5.750000E-1	5.231810E-5
5.800000E-1	5.383240E-5
5.850000E-1	5.826140E-5
5.900000E-1	5.933970E-5
5.950000E-1	6.280880E-5
6.000000E-1	6.311700E-5
6.050000E-1	6.452110E-5
6.100000E-1	6.542850E-5
6.150000E-1	6.875170E-5
6.200000E-1	6.881190E-5
6.250000E-1	7.313200E-5
6.300000E-1	7.061540E-5
6.350000E-1	7.212280E-5
6.400000E-1	7.465480E-5
6.450000E-1	7.700490E-5
6.500000E-1	8.011900E-5
6.550000E-1	8.306720E-5
6.600000E-1	8.478990E-5
6.650000E-1	8.666260E-5
6.700000E-1	8.945570E-5
6.750000E-1	9.165300E-5
6.800000E-1	9.370090E-5
6.850000E-1	9.797640E-5
6.900000E-1	9.985240E-5
6.950000E-1	1.044130E-4
7.000000E-1	1.045020E-4
7.050000E-1	1.080900E-4
7.100000E-1	1.081110E-4
7.150000E-1	1.131260E-4
7.200000E-1	1.158830E-4
7.250000E-1	1.197190E-4
7.300000E-1	1.239030E-4
7.350000E-1	1.304520E-4
7.400000E-1	1.336950E-4
7.450000E-1	1.345700E-4
7.500000E-1	1.397100E-4
7.550000E-1	1.445790E-4
7.600000E-1	1.501350E-4
7.650000E-1	1.537200E-4
7.700000E-1	1.561670E-4
7.750000E-1	1.619350E-4
7.800000E-1	1.657080E-4
7.850000E-1	1.696810E-4
7.900000E-1	1.738010E-4
7.950000E-1	1.768660E-4
8.000000E-1	1.806440E-4
