Voltage [V]	Current [A]
-2.000000E-1	-3.712580E-5
-1.950000E-1	-3.678850E-5
-1.900000E-1	-3.617740E-5
-1.850000E-1	-3.599330E-5
-1.800000E-1	-3.563580E-5
-1.750000E-1	-3.516320E-5
-1.700000E-1	-3.481300E-5
-1.650000E-1	-3.436320E-5
-1.600000E-1	-3.428090E-5
-1.550000E-1	-3.376390E-5
-1.500000E-1	-3.327030E-5
-1.450000E-1	-3.250730E-5
-1.400000E-1	-3.230100E-5
-1.350000E-1	-3.220710E-5
-1.300000E-1	-3.180730E-5
-1.250000E-1	-3.148520E-5
-1.200000E-1	-3.098170E-5
-1.150000E-1	-3.062910E-5
-1.100000E-1	-3.027650E-5
-1.050000E-1	-2.999680E-5
-1.000000E-1	-2.957290E-5
-9.500001E-2	-2.920610E-5
-9.000000E-2	-2.882380E-5
-8.500001E-2	-2.861530E-5
-8.000001E-2	-2.820850E-5
-7.500000E-2	-2.745550E-5
-7.000001E-2	-2.724530E-5
-6.500001E-2	-2.678480E-5
-6.000000E-2	-2.634020E-5
-5.500001E-2	-2.601020E-5
-5.000001E-2	-2.560930E-5
-4.500000E-2	-2.534980E-5
-4.000001E-2	-2.493820E-5
-3.500001E-2	-2.468020E-5
-3.000000E-2	-2.424190E-5
-2.500001E-2	-2.388590E-5
-2.000001E-2	-2.356230E-5
-1.500000E-2	-2.315850E-5
-1.000001E-2	-2.288030E-5
-5.000010E-3	-2.248720E-5
-1.490116E-8	-2.218980E-5
4.999995E-3	-2.174840E-5
9.999990E-3	-2.141200E-5
1.499999E-2	-2.105210E-5
2.000000E-2	-2.064460E-5
2.499999E-2	-2.020800E-5
2.999999E-2	-1.978770E-5
3.500000E-2	-1.943100E-5
3.999999E-2	-1.898100E-5
4.499999E-2	-1.865800E-5
5.000000E-2	-1.827160E-5
5.499999E-2	-1.783170E-5
5.999999E-2	-1.741570E-5
6.499998E-2	-1.723490E-5
6.999998E-2	-1.692360E-5
7.500000E-2	-1.632080E-5
8.000000E-2	-1.591230E-5
8.499999E-2	-1.546940E-5
8.999999E-2	-1.498300E-5
9.499998E-2	-1.454470E-5
9.999998E-2	-1.411830E-5
1.050000E-1	-1.388980E-5
1.100000E-1	-1.349450E-5
1.150000E-1	-1.271460E-5
1.200000E-1	-1.233520E-5
1.250000E-1	-1.175820E-5
1.300000E-1	-1.152230E-5
1.350000E-1	-1.104010E-5
1.400000E-1	-1.092170E-5
1.450000E-1	-1.023460E-5
1.500000E-1	-9.621990E-6
1.550000E-1	-9.147440E-6
1.600000E-1	-8.950430E-6
1.650000E-1	-8.133250E-6
1.700000E-1	-7.013030E-6
1.750000E-1	-6.669060E-6
1.800000E-1	-6.193380E-6
1.850000E-1	-6.825580E-6
1.900000E-1	-6.500680E-6
1.950000E-1	-6.362350E-6
2.000000E-1	-5.714790E-6
2.050000E-1	-5.090230E-6
2.100000E-1	-4.127200E-6
2.150000E-1	-3.388540E-6
2.200000E-1	-3.373780E-7
2.250000E-1	2.544320E-7
2.300000E-1	1.094030E-6
2.350000E-1	9.383100E-7
2.400000E-1	-8.214160E-7
2.450000E-1	-5.444090E-7
2.500000E-1	-3.641250E-7
2.550000E-1	5.202540E-7
2.600000E-1	8.511220E-7
2.650000E-1	1.387550E-6
2.700000E-1	1.816550E-6
2.750000E-1	2.593090E-6
2.800000E-1	3.316240E-6
2.850000E-1	3.848570E-6
2.900000E-1	4.407120E-6
2.950000E-1	5.264310E-6
3.000000E-1	6.296600E-6
3.050000E-1	6.719690E-6
3.100000E-1	8.112110E-6
3.150000E-1	7.983620E-6
3.200000E-1	8.919290E-6
3.250000E-1	9.789130E-6
3.300000E-1	1.053740E-5
3.350000E-1	1.121550E-5
3.400000E-1	1.076740E-5
3.450000E-1	1.268990E-5
3.500000E-1	1.348060E-5
3.550000E-1	1.387910E-5
3.600000E-1	1.521350E-5
3.650000E-1	1.517860E-5
3.700000E-1	1.611150E-5
3.750000E-1	1.700510E-5
3.800000E-1	1.763420E-5
3.850000E-1	1.798320E-5
3.900000E-1	1.880770E-5
3.950000E-1	1.921310E-5
4.000000E-1	1.989210E-5
4.050000E-1	2.060990E-5
4.100000E-1	2.097000E-5
4.150000E-1	2.091830E-5
4.200000E-1	2.190470E-5
4.250000E-1	2.188480E-5
4.300000E-1	2.313100E-5
4.350000E-1	2.376710E-5
4.400000E-1	2.415240E-5
4.450000E-1	2.761920E-5
4.500000E-1	2.563100E-5
4.550000E-1	2.599430E-5
4.600000E-1	2.675150E-5
4.650000E-1	2.769350E-5
4.700000E-1	2.876180E-5
4.750000E-1	3.011170E-5
4.800000E-1	3.030360E-5
4.850000E-1	3.108230E-5
4.900000E-1	3.237180E-5
4.950000E-1	3.440530E-5
5.000000E-1	3.428520E-5
5.050000E-1	3.410260E-5
5.100000E-1	3.397680E-5
5.150000E-1	3.501400E-5
5.200000E-1	3.560030E-5
5.250000E-1	3.632340E-5
5.300000E-1	3.725570E-5
5.350000E-1	3.700500E-5
5.400000E-1	3.859310E-5
5.450000E-1	3.941410E-5
5.500000E-1	4.042560E-5
5.550000E-1	4.196600E-5
5.600000E-1	4.328820E-5
5.650000E-1	4.505760E-5
5.700000E-1	4.590830E-5
5.750000E-1	4.742960E-5
5.800000E-1	4.937530E-5
5.850000E-1	5.010360E-5
5.900000E-1	5.230660E-5
5.950000E-1	5.267720E-5
6.000000E-1	5.530660E-5
6.050000E-1	5.584670E-5
6.100000E-1	5.899640E-5
6.150000E-1	5.697360E-5
6.200000E-1	5.822030E-5
6.250000E-1	6.047380E-5
6.300000E-1	6.214360E-5
6.350000E-1	6.787170E-5
6.400000E-1	6.672680E-5
6.450000E-1	7.438110E-5
6.500000E-1	7.068210E-5
6.550000E-1	7.387150E-5
6.600000E-1	7.455430E-5
6.650000E-1	7.760160E-5
6.700000E-1	7.972160E-5
6.750000E-1	8.157530E-5
6.800000E-1	8.446030E-5
6.850000E-1	8.689940E-5
6.900000E-1	9.044730E-5
6.950000E-1	9.227730E-5
7.000000E-1	9.485100E-5
7.050000E-1	9.943080E-5
7.100000E-1	1.011420E-4
7.150000E-1	1.044740E-4
7.200000E-1	1.128290E-4
7.250000E-1	1.151390E-4
7.300000E-1	1.133790E-4
7.350000E-1	1.167100E-4
7.400000E-1	1.204340E-4
7.450000E-1	1.269960E-4
7.500000E-1	1.282440E-4
7.550000E-1	1.333180E-4
7.600000E-1	1.358250E-4
7.650000E-1	1.389870E-4
7.700000E-1	1.419380E-4
7.750000E-1	1.490740E-4
7.800000E-1	1.501450E-4
7.850000E-1	1.541850E-4
7.900000E-1	1.590060E-4
7.950000E-1	1.666690E-4
8.000000E-1	1.682460E-4
