Voltage [V]	Current [A]
-2.000000E-1	-2.927250E-2
-1.950000E-1	-2.931260E-2
-1.900000E-1	-2.929330E-2
-1.850000E-1	-2.933690E-2
-1.800000E-1	-2.931540E-2
-1.750000E-1	-2.929970E-2
-1.700000E-1	-2.927420E-2
-1.650000E-1	-2.930730E-2
-1.600000E-1	-2.933350E-2
-1.550000E-1	-2.930990E-2
-1.500000E-1	-2.931660E-2
-1.450000E-1	-2.934100E-2
-1.400000E-1	-2.935120E-2
-1.350000E-1	-2.931020E-2
-1.300000E-1	-2.926820E-2
-1.250000E-1	-2.932320E-2
-1.200000E-1	-2.933520E-2
-1.150000E-1	-2.928930E-2
-1.100000E-1	-2.930540E-2
-1.050000E-1	-2.930570E-2
-1.000000E-1	-2.927110E-2
-9.500001E-2	-2.928810E-2
-9.000000E-2	-2.930140E-2
-8.500001E-2	-2.930320E-2
-8.000001E-2	-2.928670E-2
-7.500000E-2	-2.930080E-2
-7.000001E-2	-2.931320E-2
-6.500001E-2	-2.931550E-2
-6.000000E-2	-2.930360E-2
-5.500001E-2	-2.930300E-2
-5.000001E-2	-2.931050E-2
-4.500000E-2	-2.929110E-2
-4.000001E-2	-2.933390E-2
-3.500001E-2	-2.929370E-2
-3.000000E-2	-2.927920E-2
-2.500001E-2	-2.929300E-2
-2.000001E-2	-2.929050E-2
-1.500000E-2	-2.924480E-2
-1.000001E-2	-2.924250E-2
-5.000010E-3	-2.925480E-2
-1.490116E-8	-2.928170E-2
4.999995E-3	-2.929410E-2
9.999990E-3	-2.928610E-2
1.499999E-2	-2.929330E-2
2.000000E-2	-2.934070E-2
2.499999E-2	-2.928880E-2
2.999999E-2	-2.923890E-2
3.500000E-2	-2.925500E-2
3.999999E-2	-2.930740E-2
4.499999E-2	-2.928420E-2
5.000000E-2	-2.926520E-2
5.499999E-2	-2.927110E-2
5.999999E-2	-2.923870E-2
6.499998E-2	-2.920710E-2
6.999998E-2	-2.925570E-2
7.500000E-2	-2.921720E-2
8.000000E-2	-2.922750E-2
8.499999E-2	-2.917950E-2
8.999999E-2	-2.923270E-2
9.499998E-2	-2.922670E-2
9.999998E-2	-2.925150E-2
1.050000E-1	-2.924530E-2
1.100000E-1	-2.928750E-2
1.150000E-1	-2.926410E-2
1.200000E-1	-2.927640E-2
1.250000E-1	-2.927010E-2
1.300000E-1	-2.926630E-2
1.350000E-1	-2.925250E-2
1.400000E-1	-2.923990E-2
1.450000E-1	-2.923500E-2
1.500000E-1	-2.923540E-2
1.550000E-1	-2.922790E-2
1.600000E-1	-2.922820E-2
1.650000E-1	-2.922280E-2
1.700000E-1	-2.920580E-2
1.750000E-1	-2.920170E-2
1.800000E-1	-2.924280E-2
1.850000E-1	-2.919230E-2
1.900000E-1	-2.919580E-2
1.950000E-1	-2.921100E-2
2.000000E-1	-2.921250E-2
2.050000E-1	-2.926210E-2
2.100000E-1	-2.926390E-2
2.150000E-1	-2.925180E-2
2.200000E-1	-2.926580E-2
2.250000E-1	-2.923600E-2
2.300000E-1	-2.922860E-2
2.350000E-1	-2.919500E-2
2.400000E-1	-2.918000E-2
2.450000E-1	-2.920460E-2
2.500000E-1	-2.915190E-2
2.550000E-1	-2.910340E-2
2.600000E-1	-2.911260E-2
2.650000E-1	-2.910880E-2
2.700000E-1	-2.911890E-2
2.750000E-1	-2.916380E-2
2.800000E-1	-2.908790E-2
2.850000E-1	-2.908960E-2
2.900000E-1	-2.906700E-2
2.950000E-1	-2.905250E-2
3.000000E-1	-2.903430E-2
3.050000E-1	-2.903440E-2
3.100000E-1	-2.902330E-2
3.150000E-1	-2.898410E-2
3.200000E-1	-2.902490E-2
3.250000E-1	-2.900370E-2
3.300000E-1	-2.892290E-2
3.350000E-1	-2.887900E-2
3.400000E-1	-2.883350E-2
3.450000E-1	-2.883260E-2
3.500000E-1	-2.878760E-2
3.550000E-1	-2.874210E-2
3.600000E-1	-2.867360E-2
3.650000E-1	-2.864920E-2
3.700000E-1	-2.861290E-2
3.750000E-1	-2.859260E-2
3.800000E-1	-2.851810E-2
3.850000E-1	-2.843100E-2
3.900000E-1	-2.835580E-2
3.950000E-1	-2.833970E-2
4.000000E-1	-2.825280E-2
4.050000E-1	-2.818110E-2
4.100000E-1	-2.805700E-2
4.150000E-1	-2.795870E-2
4.200000E-1	-2.780140E-2
4.250000E-1	-2.762950E-2
4.300000E-1	-2.746960E-2
4.350000E-1	-2.730660E-2
4.400000E-1	-2.710470E-2
4.450000E-1	-2.688100E-2
4.500000E-1	-2.657450E-2
4.550000E-1	-2.627140E-2
4.600000E-1	-2.594890E-2
4.650000E-1	-2.550410E-2
4.700000E-1	-2.508490E-2
4.750000E-1	-2.454370E-2
4.800000E-1	-2.399810E-2
4.850000E-1	-2.336510E-2
4.900000E-1	-2.264480E-2
4.950000E-1	-2.176340E-2
5.000000E-1	-2.076710E-2
5.050000E-1	-1.966570E-2
5.100000E-1	-1.846160E-2
5.150000E-1	-1.710930E-2
5.200000E-1	-1.559780E-2
5.250000E-1	-1.395260E-2
5.300000E-1	-1.205290E-2
5.350000E-1	-1.011960E-2
5.400000E-1	-8.013360E-3
5.450000E-1	-5.716930E-3
5.500000E-1	-3.241290E-3
5.550000E-1	-5.629210E-4
5.600000E-1	2.196620E-3
5.650000E-1	5.155670E-3
5.700000E-1	8.197200E-3
5.750000E-1	1.144310E-2
5.800000E-1	1.477840E-2
5.850000E-1	1.828820E-2
5.900000E-1	2.188440E-2
5.950000E-1	2.559300E-2
6.000000E-1	2.946800E-2
6.050000E-1	3.338720E-2
6.100000E-1	3.741160E-2
6.150000E-1	4.153890E-2
6.200000E-1	4.574730E-2
6.250000E-1	5.004030E-2
6.300000E-1	5.441240E-2
6.350000E-1	5.887250E-2
6.400000E-1	6.335640E-2
6.450000E-1	6.792500E-2
6.500000E-1	7.257400E-2
6.550000E-1	7.727830E-2
6.600000E-1	8.202250E-2
6.650000E-1	8.682540E-2
6.700000E-1	9.168260E-2
6.750000E-1	9.660050E-2
6.800000E-1	1.014220E-1
6.850000E-1	1.064160E-1
6.900000E-1	1.114350E-1
6.950000E-1	1.164950E-1
7.000000E-1	1.216070E-1
