Voltage [V]	Current [A]
-2.000000E-1	-6.281050E-5
-1.950000E-1	-6.258340E-5
-1.900000E-1	-6.245310E-5
-1.850000E-1	-6.206130E-5
-1.800000E-1	-6.188000E-5
-1.750000E-1	-6.173740E-5
-1.700000E-1	-6.159600E-5
-1.650000E-1	-6.141640E-5
-1.600000E-1	-6.117700E-5
-1.550000E-1	-6.106000E-5
-1.500000E-1	-6.070340E-5
-1.450000E-1	-6.047910E-5
-1.400000E-1	-6.020670E-5
-1.350000E-1	-5.991840E-5
-1.300000E-1	-5.965210E-5
-1.250000E-1	-5.943320E-5
-1.200000E-1	-5.928420E-5
-1.150000E-1	-5.894400E-5
-1.100000E-1	-5.880550E-5
-1.050000E-1	-5.853100E-5
-1.000000E-1	-5.827970E-5
-9.500001E-2	-5.825700E-5
-9.000000E-2	-5.792750E-5
-8.500001E-2	-5.770780E-5
-8.000001E-2	-5.742520E-5
-7.500000E-2	-5.704580E-5
-7.000001E-2	-5.683610E-5
-6.500001E-2	-5.653640E-5
-6.000000E-2	-5.633080E-5
-5.500001E-2	-5.598630E-5
-5.000001E-2	-5.573770E-5
-4.500000E-2	-5.559100E-5
-4.000001E-2	-5.527480E-5
-3.500001E-2	-5.500320E-5
-3.000000E-2	-5.463310E-5
-2.500001E-2	-5.434060E-5
-2.000001E-2	-5.406600E-5
-1.500000E-2	-5.372630E-5
-1.000001E-2	-5.342080E-5
-5.000010E-3	-5.304310E-5
-1.490116E-8	-5.272580E-5
4.999995E-3	-5.239840E-5
9.999990E-3	-5.209560E-5
1.499999E-2	-5.178530E-5
2.000000E-2	-5.144360E-5
2.499999E-2	-5.106690E-5
2.999999E-2	-5.063240E-5
3.500000E-2	-5.033240E-5
3.999999E-2	-4.992720E-5
4.499999E-2	-4.953840E-5
5.000000E-2	-4.910550E-5
5.499999E-2	-4.870700E-5
5.999999E-2	-4.831160E-5
6.499998E-2	-4.791080E-5
6.999998E-2	-4.749200E-5
7.500000E-2	-4.709590E-5
8.000000E-2	-4.663280E-5
8.499999E-2	-4.615110E-5
8.999999E-2	-4.570070E-5
9.499998E-2	-4.528350E-5
9.999998E-2	-4.484910E-5
1.050000E-1	-4.429170E-5
1.100000E-1	-4.382290E-5
1.150000E-1	-4.329840E-5
1.200000E-1	-4.283060E-5
1.250000E-1	-4.234300E-5
1.300000E-1	-4.178120E-5
1.350000E-1	-4.124530E-5
1.400000E-1	-4.070840E-5
1.450000E-1	-4.010000E-5
1.500000E-1	-3.954300E-5
1.550000E-1	-3.905350E-5
1.600000E-1	-3.841730E-5
1.650000E-1	-3.788580E-5
1.700000E-1	-3.727480E-5
1.750000E-1	-3.671330E-5
1.800000E-1	-3.608950E-5
1.850000E-1	-3.540640E-5
1.900000E-1	-3.478750E-5
1.950000E-1	-3.422460E-5
2.000000E-1	-3.353640E-5
2.050000E-1	-3.295540E-5
2.100000E-1	-3.233200E-5
2.150000E-1	-3.166840E-5
2.200000E-1	-3.108210E-5
2.250000E-1	-3.042370E-5
2.300000E-1	-2.975040E-5
2.350000E-1	-2.909670E-5
2.400000E-1	-2.839250E-5
2.450000E-1	-2.768730E-5
2.500000E-1	-2.707810E-5
2.550000E-1	-2.636370E-5
2.600000E-1	-2.572580E-5
2.650000E-1	-2.511180E-5
2.700000E-1	-2.441710E-5
2.750000E-1	-2.378190E-5
2.800000E-1	-2.312060E-5
2.850000E-1	-2.246480E-5
2.900000E-1	-2.183660E-5
2.950000E-1	-2.116430E-5
3.000000E-1	-2.049920E-5
3.050000E-1	-1.989220E-5
3.100000E-1	-1.922550E-5
3.150000E-1	-1.859610E-5
3.200000E-1	-1.800460E-5
3.250000E-1	-1.738270E-5
3.300000E-1	-1.678360E-5
3.350000E-1	-1.615860E-5
3.400000E-1	-1.555680E-5
3.450000E-1	-1.499450E-5
3.500000E-1	-1.441420E-5
3.550000E-1	-1.380260E-5
3.600000E-1	-1.323200E-5
3.650000E-1	-1.266610E-5
3.700000E-1	-1.210960E-5
3.750000E-1	-1.159950E-5
3.800000E-1	-1.106220E-5
3.850000E-1	-1.055970E-5
3.900000E-1	-1.004670E-5
3.950000E-1	-9.515220E-6
4.000000E-1	-9.032730E-6
4.050000E-1	-8.522970E-6
4.100000E-1	-8.029520E-6
4.150000E-1	-7.527150E-6
4.200000E-1	-7.081120E-6
4.250000E-1	-6.615090E-6
4.300000E-1	-6.150120E-6
4.350000E-1	-5.693330E-6
4.400000E-1	-5.241900E-6
4.450000E-1	-4.779460E-6
4.500000E-1	-4.333690E-6
4.550000E-1	-3.881100E-6
4.600000E-1	-3.440340E-6
4.650000E-1	-2.986270E-6
4.700000E-1	-2.531180E-6
4.750000E-1	-2.086510E-6
4.800000E-1	-1.632290E-6
4.850000E-1	-1.179900E-6
4.900000E-1	-6.940010E-7
4.950000E-1	-2.207910E-7
5.000000E-1	2.533970E-7
5.050000E-1	7.600870E-7
5.100000E-1	1.279860E-6
5.150000E-1	1.802640E-6
5.200000E-1	2.352210E-6
5.250000E-1	2.924520E-6
5.300000E-1	3.520130E-6
5.350000E-1	4.146820E-6
5.400000E-1	4.797980E-6
5.450000E-1	5.483640E-6
5.500000E-1	6.198080E-6
5.550000E-1	6.961970E-6
5.600000E-1	7.763340E-6
5.650000E-1	8.606770E-6
5.700000E-1	9.501290E-6
5.750000E-1	1.045930E-5
5.800000E-1	1.146490E-5
5.850000E-1	1.253160E-5
5.900000E-1	1.366060E-5
5.950000E-1	1.486280E-5
6.000000E-1	1.613510E-5
6.050000E-1	1.748820E-5
6.100000E-1	1.891320E-5
6.150000E-1	2.042710E-5
6.200000E-1	2.202830E-5
6.250000E-1	2.371810E-5
6.300000E-1	2.550110E-5
6.350000E-1	2.738240E-5
6.400000E-1	2.936510E-5
6.450000E-1	3.143870E-5
6.500000E-1	3.362660E-5
6.550000E-1	3.591490E-5
6.600000E-1	3.831420E-5
6.650000E-1	4.082680E-5
6.700000E-1	4.343640E-5
6.750000E-1	4.617660E-5
6.800000E-1	4.902520E-5
6.850000E-1	5.199150E-5
6.900000E-1	5.506490E-5
6.950000E-1	5.826400E-5
7.000000E-1	6.157160E-5
7.050000E-1	6.497910E-5
7.100000E-1	6.851750E-5
7.150000E-1	7.217140E-5
7.200000E-1	7.593530E-5
7.250000E-1	7.982220E-5
7.300000E-1	8.381430E-5
7.350000E-1	8.791470E-5
7.400000E-1	9.213090E-5
7.450000E-1	9.644470E-5
7.500000E-1	1.008650E-4
7.550000E-1	1.054010E-4
7.600000E-1	1.100320E-4
7.650000E-1	1.147680E-4
7.700000E-1	1.196010E-4
7.750000E-1	1.245290E-4
7.800000E-1	1.295560E-4
7.850000E-1	1.346830E-4
7.900000E-1	1.399090E-4
7.950000E-1	1.452220E-4
8.000000E-1	1.506290E-4
