Voltage [V]	Current [A]
-2.000000E-1	-3.500340E-5
-1.950000E-1	-3.485470E-5
-1.900000E-1	-3.476580E-5
-1.850000E-1	-3.464660E-5
-1.800000E-1	-3.455000E-5
-1.750000E-1	-3.443700E-5
-1.700000E-1	-3.432110E-5
-1.650000E-1	-3.423800E-5
-1.600000E-1	-3.407010E-5
-1.550000E-1	-3.395270E-5
-1.500000E-1	-3.383170E-5
-1.450000E-1	-3.370650E-5
-1.400000E-1	-3.355740E-5
-1.350000E-1	-3.345620E-5
-1.300000E-1	-3.336950E-5
-1.250000E-1	-3.319860E-5
-1.200000E-1	-3.307990E-5
-1.150000E-1	-3.297680E-5
-1.100000E-1	-3.287830E-5
-1.050000E-1	-3.268360E-5
-1.000000E-1	-3.250760E-5
-9.500001E-2	-3.240460E-5
-9.000000E-2	-3.224100E-5
-8.500001E-2	-3.210440E-5
-8.000001E-2	-3.199570E-5
-7.500000E-2	-3.194360E-5
-7.000001E-2	-3.173970E-5
-6.500001E-2	-3.159200E-5
-6.000000E-2	-3.152190E-5
-5.500001E-2	-3.133670E-5
-5.000001E-2	-3.120010E-5
-4.500000E-2	-3.098030E-5
-4.000001E-2	-3.081980E-5
-3.500001E-2	-3.068690E-5
-3.000000E-2	-3.046010E-5
-2.500001E-2	-3.031930E-5
-2.000001E-2	-3.015050E-5
-1.500000E-2	-3.000770E-5
-1.000001E-2	-2.986090E-5
-5.000010E-3	-2.967000E-5
-1.490116E-8	-2.955760E-5
4.999995E-3	-2.934540E-5
9.999990E-3	-2.916440E-5
1.499999E-2	-2.899490E-5
2.000000E-2	-2.873410E-5
2.499999E-2	-2.852360E-5
2.999999E-2	-2.835110E-5
3.500000E-2	-2.813630E-5
3.999999E-2	-2.791360E-5
4.499999E-2	-2.769340E-5
5.000000E-2	-2.749040E-5
5.499999E-2	-2.731740E-5
5.999999E-2	-2.712600E-5
6.499998E-2	-2.686740E-5
6.999998E-2	-2.661100E-5
7.500000E-2	-2.637000E-5
8.000000E-2	-2.609600E-5
8.499999E-2	-2.585560E-5
8.999999E-2	-2.556730E-5
9.499998E-2	-2.532640E-5
9.999998E-2	-2.511390E-5
1.050000E-1	-2.481600E-5
1.100000E-1	-2.452320E-5
1.150000E-1	-2.427040E-5
1.200000E-1	-2.400100E-5
1.250000E-1	-2.370080E-5
1.300000E-1	-2.338100E-5
1.350000E-1	-2.308540E-5
1.400000E-1	-2.277650E-5
1.450000E-1	-2.251130E-5
1.500000E-1	-2.217310E-5
1.550000E-1	-2.185850E-5
1.600000E-1	-2.152830E-5
1.650000E-1	-2.116750E-5
1.700000E-1	-2.089830E-5
1.750000E-1	-2.058660E-5
1.800000E-1	-2.024200E-5
1.850000E-1	-1.989240E-5
1.900000E-1	-1.954210E-5
1.950000E-1	-1.918690E-5
2.000000E-1	-1.883990E-5
2.050000E-1	-1.843380E-5
2.100000E-1	-1.804870E-5
2.150000E-1	-1.768250E-5
2.200000E-1	-1.731200E-5
2.250000E-1	-1.696580E-5
2.300000E-1	-1.659230E-5
2.350000E-1	-1.622090E-5
2.400000E-1	-1.586980E-5
2.450000E-1	-1.547990E-5
2.500000E-1	-1.508930E-5
2.550000E-1	-1.472250E-5
2.600000E-1	-1.433020E-5
2.650000E-1	-1.393480E-5
2.700000E-1	-1.357460E-5
2.750000E-1	-1.320660E-5
2.800000E-1	-1.283670E-5
2.850000E-1	-1.244960E-5
2.900000E-1	-1.208890E-5
2.950000E-1	-1.170380E-5
3.000000E-1	-1.129770E-5
3.050000E-1	-1.094530E-5
3.100000E-1	-1.057680E-5
3.150000E-1	-1.023270E-5
3.200000E-1	-9.876520E-6
3.250000E-1	-9.514060E-6
3.300000E-1	-9.151940E-6
3.350000E-1	-8.811860E-6
3.400000E-1	-8.461370E-6
3.450000E-1	-8.112800E-6
3.500000E-1	-7.774480E-6
3.550000E-1	-7.434240E-6
3.600000E-1	-7.097540E-6
3.650000E-1	-6.770070E-6
3.700000E-1	-6.433310E-6
3.750000E-1	-6.114280E-6
3.800000E-1	-5.793250E-6
3.850000E-1	-5.475340E-6
3.900000E-1	-5.179490E-6
3.950000E-1	-4.870850E-6
4.000000E-1	-4.563970E-6
4.050000E-1	-4.264430E-6
4.100000E-1	-3.950570E-6
4.150000E-1	-3.641730E-6
4.200000E-1	-3.352370E-6
4.250000E-1	-3.047140E-6
4.300000E-1	-2.743190E-6
4.350000E-1	-2.442660E-6
4.400000E-1	-2.150050E-6
4.450000E-1	-1.856520E-6
4.500000E-1	-1.553390E-6
4.550000E-1	-1.245010E-6
4.600000E-1	-9.161810E-7
4.650000E-1	-6.038630E-7
4.700000E-1	-2.817600E-7
4.750000E-1	2.025230E-8
4.800000E-1	3.988280E-7
4.850000E-1	7.497520E-7
4.900000E-1	1.115550E-6
4.950000E-1	1.493360E-6
5.000000E-1	1.886070E-6
5.050000E-1	2.296240E-6
5.100000E-1	2.719720E-6
5.150000E-1	3.170360E-6
5.200000E-1	3.642680E-6
5.250000E-1	4.143710E-6
5.300000E-1	4.670340E-6
5.350000E-1	5.226210E-6
5.400000E-1	5.814750E-6
5.450000E-1	6.441680E-6
5.500000E-1	7.105340E-6
5.550000E-1	7.814250E-6
5.600000E-1	8.567090E-6
5.650000E-1	9.370830E-6
5.700000E-1	1.023160E-5
5.750000E-1	1.113940E-5
5.800000E-1	1.209960E-5
5.850000E-1	1.312830E-5
5.900000E-1	1.422190E-5
5.950000E-1	1.538620E-5
6.000000E-1	1.662100E-5
6.050000E-1	1.793450E-5
6.100000E-1	1.932150E-5
6.150000E-1	2.079310E-5
6.200000E-1	2.234890E-5
6.250000E-1	2.399280E-5
6.300000E-1	2.573050E-5
6.350000E-1	2.755740E-5
6.400000E-1	2.948150E-5
6.450000E-1	3.149380E-5
6.500000E-1	3.362000E-5
6.550000E-1	3.584570E-5
6.600000E-1	3.817810E-5
6.650000E-1	4.061540E-5
6.700000E-1	4.316670E-5
6.750000E-1	4.581420E-5
6.800000E-1	4.857660E-5
6.850000E-1	5.144580E-5
6.900000E-1	5.442290E-5
6.950000E-1	5.751290E-5
7.000000E-1	6.071140E-5
7.050000E-1	6.401110E-5
7.100000E-1	6.743930E-5
7.150000E-1	7.097680E-5
7.200000E-1	7.461820E-5
7.250000E-1	7.837650E-5
7.300000E-1	8.224490E-5
7.350000E-1	8.621870E-5
7.400000E-1	9.029140E-5
7.450000E-1	9.447750E-5
7.500000E-1	9.875560E-5
7.550000E-1	1.031480E-4
7.600000E-1	1.076300E-4
7.650000E-1	1.122160E-4
7.700000E-1	1.168910E-4
7.750000E-1	1.216770E-4
7.800000E-1	1.265400E-4
7.850000E-1	1.315250E-4
7.900000E-1	1.366140E-4
7.950000E-1	1.417670E-4
8.000000E-1	1.470170E-4
