Voltage [V]	Current [A]
-2.000000E-1	-1.856110E-5
-1.950000E-1	-1.849290E-5
-1.900000E-1	-1.841280E-5
-1.850000E-1	-1.835980E-5
-1.800000E-1	-1.833340E-5
-1.750000E-1	-1.828420E-5
-1.700000E-1	-1.820520E-5
-1.650000E-1	-1.813620E-5
-1.600000E-1	-1.805710E-5
-1.550000E-1	-1.798770E-5
-1.500000E-1	-1.792270E-5
-1.450000E-1	-1.788790E-5
-1.400000E-1	-1.782840E-5
-1.350000E-1	-1.776620E-5
-1.300000E-1	-1.770320E-5
-1.250000E-1	-1.762470E-5
-1.200000E-1	-1.758980E-5
-1.150000E-1	-1.751170E-5
-1.100000E-1	-1.744250E-5
-1.050000E-1	-1.739130E-5
-1.000000E-1	-1.731030E-5
-9.500001E-2	-1.721680E-5
-9.000000E-2	-1.714650E-5
-8.500001E-2	-1.707450E-5
-8.000001E-2	-1.701490E-5
-7.500000E-2	-1.694920E-5
-7.000001E-2	-1.685190E-5
-6.500001E-2	-1.676960E-5
-6.000000E-2	-1.669720E-5
-5.500001E-2	-1.661500E-5
-5.000001E-2	-1.657840E-5
-4.500000E-2	-1.647910E-5
-4.000001E-2	-1.642680E-5
-3.500001E-2	-1.636340E-5
-3.000000E-2	-1.628400E-5
-2.500001E-2	-1.618830E-5
-2.000001E-2	-1.608450E-5
-1.500000E-2	-1.596060E-5
-1.000001E-2	-1.587540E-5
-5.000010E-3	-1.581600E-5
-1.490116E-8	-1.572110E-5
4.999995E-3	-1.562020E-5
9.999990E-3	-1.555270E-5
1.499999E-2	-1.542630E-5
2.000000E-2	-1.531620E-5
2.499999E-2	-1.522060E-5
2.999999E-2	-1.512810E-5
3.500000E-2	-1.502260E-5
3.999999E-2	-1.492080E-5
4.499999E-2	-1.480090E-5
5.000000E-2	-1.469330E-5
5.499999E-2	-1.459010E-5
5.999999E-2	-1.447250E-5
6.499998E-2	-1.436900E-5
6.999998E-2	-1.422870E-5
7.500000E-2	-1.409420E-5
8.000000E-2	-1.400620E-5
8.499999E-2	-1.386080E-5
8.999999E-2	-1.373410E-5
9.499998E-2	-1.359510E-5
9.999998E-2	-1.343610E-5
1.050000E-1	-1.330100E-5
1.100000E-1	-1.317250E-5
1.150000E-1	-1.300530E-5
1.200000E-1	-1.288210E-5
1.250000E-1	-1.274490E-5
1.300000E-1	-1.257630E-5
1.350000E-1	-1.243520E-5
1.400000E-1	-1.226280E-5
1.450000E-1	-1.210940E-5
1.500000E-1	-1.194100E-5
1.550000E-1	-1.176840E-5
1.600000E-1	-1.158920E-5
1.650000E-1	-1.142500E-5
1.700000E-1	-1.124460E-5
1.750000E-1	-1.107370E-5
1.800000E-1	-1.088240E-5
1.850000E-1	-1.070020E-5
1.900000E-1	-1.050510E-5
1.950000E-1	-1.032120E-5
2.000000E-1	-1.014300E-5
2.050000E-1	-9.934290E-6
2.100000E-1	-9.747540E-6
2.150000E-1	-9.579040E-6
2.200000E-1	-9.374230E-6
2.250000E-1	-9.160970E-6
2.300000E-1	-8.983800E-6
2.350000E-1	-8.766190E-6
2.400000E-1	-8.568560E-6
2.450000E-1	-8.352460E-6
2.500000E-1	-8.134640E-6
2.550000E-1	-7.956350E-6
2.600000E-1	-7.744570E-6
2.650000E-1	-7.528010E-6
2.700000E-1	-7.328580E-6
2.750000E-1	-7.110800E-6
2.800000E-1	-6.902950E-6
2.850000E-1	-6.699070E-6
2.900000E-1	-6.489960E-6
2.950000E-1	-6.285780E-6
3.000000E-1	-6.072380E-6
3.050000E-1	-5.859880E-6
3.100000E-1	-5.649660E-6
3.150000E-1	-5.438280E-6
3.200000E-1	-5.223130E-6
3.250000E-1	-5.034040E-6
3.300000E-1	-4.837480E-6
3.350000E-1	-4.634780E-6
3.400000E-1	-4.427280E-6
3.450000E-1	-4.239000E-6
3.500000E-1	-4.035880E-6
3.550000E-1	-3.826720E-6
3.600000E-1	-3.638440E-6
3.650000E-1	-3.442600E-6
3.700000E-1	-3.243030E-6
3.750000E-1	-3.044940E-6
3.800000E-1	-2.853590E-6
3.850000E-1	-2.665890E-6
3.900000E-1	-2.472430E-6
3.950000E-1	-2.281860E-6
4.000000E-1	-2.092670E-6
4.050000E-1	-1.899230E-6
4.100000E-1	-1.701600E-6
4.150000E-1	-1.504820E-6
4.200000E-1	-1.297680E-6
4.250000E-1	-1.097770E-6
4.300000E-1	-8.964950E-7
4.350000E-1	-6.853180E-7
4.400000E-1	-4.798290E-7
4.450000E-1	-2.639800E-7
4.500000E-1	-1.147420E-8
4.550000E-1	7.429170E-8
4.600000E-1	4.182270E-7
4.650000E-1	6.568900E-7
4.700000E-1	9.071890E-7
4.750000E-1	1.170320E-6
4.800000E-1	1.443620E-6
4.850000E-1	1.728810E-6
4.900000E-1	2.029840E-6
4.950000E-1	2.345930E-6
5.000000E-1	2.677670E-6
5.050000E-1	3.031010E-6
5.100000E-1	3.401460E-6
5.150000E-1	3.794410E-6
5.200000E-1	4.213900E-6
5.250000E-1	4.659370E-6
5.300000E-1	5.133780E-6
5.350000E-1	5.640940E-6
5.400000E-1	6.181020E-6
5.450000E-1	6.758320E-6
5.500000E-1	7.376140E-6
5.550000E-1	8.032800E-6
5.600000E-1	8.736350E-6
5.650000E-1	9.484560E-6
5.700000E-1	1.029020E-5
5.750000E-1	1.114650E-5
5.800000E-1	1.205310E-5
5.850000E-1	1.302570E-5
5.900000E-1	1.405800E-5
5.950000E-1	1.516270E-5
6.000000E-1	1.633170E-5
6.050000E-1	1.757250E-5
6.100000E-1	1.889180E-5
6.150000E-1	2.028790E-5
6.200000E-1	2.176850E-5
6.250000E-1	2.332790E-5
6.300000E-1	2.498080E-5
6.350000E-1	2.671990E-5
6.400000E-1	2.855130E-5
6.450000E-1	3.047100E-5
6.500000E-1	3.249190E-5
6.550000E-1	3.461470E-5
6.600000E-1	3.683300E-5
6.650000E-1	3.915490E-5
6.700000E-1	4.158190E-5
6.750000E-1	4.411990E-5
6.800000E-1	4.675670E-5
6.850000E-1	4.949870E-5
6.900000E-1	5.234880E-5
6.950000E-1	5.530110E-5
7.000000E-1	5.835540E-5
7.050000E-1	6.151430E-5
7.100000E-1	6.479500E-5
7.150000E-1	6.819740E-5
7.200000E-1	7.170030E-5
7.250000E-1	7.530850E-5
7.300000E-1	7.902180E-5
7.350000E-1	8.284140E-5
7.400000E-1	8.676240E-5
7.450000E-1	9.079460E-5
7.500000E-1	9.492670E-5
7.550000E-1	9.916270E-5
7.600000E-1	1.034900E-4
7.650000E-1	1.079230E-4
7.700000E-1	1.124340E-4
7.750000E-1	1.170550E-4
7.800000E-1	1.217800E-4
7.850000E-1	1.265880E-4
7.900000E-1	1.315030E-4
7.950000E-1	1.364940E-4
8.000000E-1	1.415830E-4
