Voltage [V]	Current [A]
-2.000000E-1	-7.535010E-5
-1.950000E-1	-7.493530E-5
-1.900000E-1	-7.477460E-5
-1.850000E-1	-7.441720E-5
-1.800000E-1	-7.430450E-5
-1.750000E-1	-7.391910E-5
-1.700000E-1	-7.377210E-5
-1.650000E-1	-7.347420E-5
-1.600000E-1	-7.323980E-5
-1.550000E-1	-7.281410E-5
-1.500000E-1	-7.250490E-5
-1.450000E-1	-7.225680E-5
-1.400000E-1	-7.205760E-5
-1.350000E-1	-7.186040E-5
-1.300000E-1	-7.169050E-5
-1.250000E-1	-7.141530E-5
-1.200000E-1	-7.105790E-5
-1.150000E-1	-7.097600E-5
-1.100000E-1	-7.055210E-5
-1.050000E-1	-7.027250E-5
-1.000000E-1	-7.006870E-5
-9.500001E-2	-6.971720E-5
-9.000000E-2	-6.940000E-5
-8.500001E-2	-6.919020E-5
-8.000001E-2	-6.892310E-5
-7.500000E-2	-6.852620E-5
-7.000001E-2	-6.833150E-5
-6.500001E-2	-6.791550E-5
-6.000000E-2	-6.770140E-5
-5.500001E-2	-6.733350E-5
-5.000001E-2	-6.709610E-5
-4.500000E-2	-6.676800E-5
-4.000001E-2	-6.647850E-5
-3.500001E-2	-6.614600E-5
-3.000000E-2	-6.564320E-5
-2.500001E-2	-6.541050E-5
-2.000001E-2	-6.498170E-5
-1.500000E-2	-6.477980E-5
-1.000001E-2	-6.441140E-5
-5.000010E-3	-6.396080E-5
-1.490116E-8	-6.363390E-5
4.999995E-3	-6.319180E-5
9.999990E-3	-6.281370E-5
1.499999E-2	-6.246380E-5
2.000000E-2	-6.195910E-5
2.499999E-2	-6.160540E-5
2.999999E-2	-6.127020E-5
3.500000E-2	-6.091230E-5
3.999999E-2	-6.045080E-5
4.499999E-2	-5.990760E-5
5.000000E-2	-5.949570E-5
5.499999E-2	-5.899540E-5
5.999999E-2	-5.863780E-5
6.499998E-2	-5.809140E-5
6.999998E-2	-5.764090E-5
7.500000E-2	-5.707980E-5
8.000000E-2	-5.663830E-5
8.499999E-2	-5.623010E-5
8.999999E-2	-5.573550E-5
9.499998E-2	-5.510680E-5
9.999998E-2	-5.453120E-5
1.050000E-1	-5.401680E-5
1.100000E-1	-5.344670E-5
1.150000E-1	-5.280090E-5
1.200000E-1	-5.219250E-5
1.250000E-1	-5.165140E-5
1.300000E-1	-5.105730E-5
1.350000E-1	-5.059180E-5
1.400000E-1	-4.983270E-5
1.450000E-1	-4.921540E-5
1.500000E-1	-4.857860E-5
1.550000E-1	-4.783770E-5
1.600000E-1	-4.718710E-5
1.650000E-1	-4.654750E-5
1.700000E-1	-4.590930E-5
1.750000E-1	-4.529350E-5
1.800000E-1	-4.452520E-5
1.850000E-1	-4.373380E-5
1.900000E-1	-4.301940E-5
1.950000E-1	-4.232170E-5
2.000000E-1	-4.160260E-5
2.050000E-1	-4.081880E-5
2.100000E-1	-4.002550E-5
2.150000E-1	-3.930930E-5
2.200000E-1	-3.860440E-5
2.250000E-1	-3.775230E-5
2.300000E-1	-3.695430E-5
2.350000E-1	-3.611760E-5
2.400000E-1	-3.535260E-5
2.450000E-1	-3.460170E-5
2.500000E-1	-3.377410E-5
2.550000E-1	-3.293120E-5
2.600000E-1	-3.218050E-5
2.650000E-1	-3.133180E-5
2.700000E-1	-3.059110E-5
2.750000E-1	-2.977020E-5
2.800000E-1	-2.891360E-5
2.850000E-1	-2.815040E-5
2.900000E-1	-2.735900E-5
2.950000E-1	-2.658640E-5
3.000000E-1	-2.576610E-5
3.050000E-1	-2.498940E-5
3.100000E-1	-2.421150E-5
3.150000E-1	-2.347250E-5
3.200000E-1	-2.267150E-5
3.250000E-1	-2.191380E-5
3.300000E-1	-2.118130E-5
3.350000E-1	-2.042640E-5
3.400000E-1	-1.969740E-5
3.450000E-1	-1.894310E-5
3.500000E-1	-1.823590E-5
3.550000E-1	-1.752120E-5
3.600000E-1	-1.680410E-5
3.650000E-1	-1.610760E-5
3.700000E-1	-1.542810E-5
3.750000E-1	-1.479110E-5
3.800000E-1	-1.413140E-5
3.850000E-1	-1.348780E-5
3.900000E-1	-1.286530E-5
3.950000E-1	-1.224410E-5
4.000000E-1	-1.165270E-5
4.050000E-1	-1.104010E-5
4.100000E-1	-1.046040E-5
4.150000E-1	-9.854710E-6
4.200000E-1	-9.301310E-6
4.250000E-1	-8.729950E-6
4.300000E-1	-8.181270E-6
4.350000E-1	-7.639080E-6
4.400000E-1	-7.109130E-6
4.450000E-1	-6.591720E-6
4.500000E-1	-6.081800E-6
4.550000E-1	-5.571300E-6
4.600000E-1	-5.077710E-6
4.650000E-1	-4.577910E-6
4.700000E-1	-4.079350E-6
4.750000E-1	-3.582480E-6
4.800000E-1	-3.095550E-6
4.850000E-1	-2.607110E-6
4.900000E-1	-2.117470E-6
4.950000E-1	-1.611350E-6
5.000000E-1	-1.116790E-6
5.050000E-1	-6.078200E-7
5.100000E-1	-3.802640E-8
5.150000E-1	4.407080E-7
5.200000E-1	9.764610E-7
5.250000E-1	1.532450E-6
5.300000E-1	2.106380E-6
5.350000E-1	2.705490E-6
5.400000E-1	3.330420E-6
5.450000E-1	3.982570E-6
5.500000E-1	4.668460E-6
5.550000E-1	5.380430E-6
5.600000E-1	6.134400E-6
5.650000E-1	6.931010E-6
5.700000E-1	7.776770E-6
5.750000E-1	8.670290E-6
5.800000E-1	9.608950E-6
5.850000E-1	1.062260E-5
5.900000E-1	1.169180E-5
5.950000E-1	1.282770E-5
6.000000E-1	1.403670E-5
6.050000E-1	1.531540E-5
6.100000E-1	1.667370E-5
6.150000E-1	1.812470E-5
6.200000E-1	1.965610E-5
6.250000E-1	2.127820E-5
6.300000E-1	2.300760E-5
6.350000E-1	2.482410E-5
6.400000E-1	2.673930E-5
6.450000E-1	2.874760E-5
6.500000E-1	3.086910E-5
6.550000E-1	3.309880E-5
6.600000E-1	3.544740E-5
6.650000E-1	3.790430E-5
6.700000E-1	4.048620E-5
6.750000E-1	4.318210E-5
6.800000E-1	4.599530E-5
6.850000E-1	4.892310E-5
6.900000E-1	5.196630E-5
6.950000E-1	5.512670E-5
7.000000E-1	5.841490E-5
7.050000E-1	6.181590E-5
7.100000E-1	6.534710E-5
7.150000E-1	6.900360E-5
7.200000E-1	7.277470E-5
7.250000E-1	7.665400E-5
7.300000E-1	8.065090E-5
7.350000E-1	8.475120E-5
7.400000E-1	8.899010E-5
7.450000E-1	9.331520E-5
7.500000E-1	9.777440E-5
7.550000E-1	1.023460E-4
7.600000E-1	1.070160E-4
7.650000E-1	1.118000E-4
7.700000E-1	1.166640E-4
7.750000E-1	1.216440E-4
7.800000E-1	1.267480E-4
7.850000E-1	1.319450E-4
7.900000E-1	1.372320E-4
7.950000E-1	1.426120E-4
8.000000E-1	1.480870E-4
