Voltage [V]	Current [A]
-2.000000E-1	-1.118880E-5
-1.950000E-1	-1.113480E-5
-1.900000E-1	-1.109370E-5
-1.850000E-1	-1.105480E-5
-1.800000E-1	-1.102690E-5
-1.750000E-1	-1.097520E-5
-1.700000E-1	-1.095880E-5
-1.650000E-1	-1.094720E-5
-1.600000E-1	-1.091120E-5
-1.550000E-1	-1.087210E-5
-1.500000E-1	-1.083660E-5
-1.450000E-1	-1.079040E-5
-1.400000E-1	-1.073890E-5
-1.350000E-1	-1.071180E-5
-1.300000E-1	-1.066760E-5
-1.250000E-1	-1.063650E-5
-1.200000E-1	-1.058360E-5
-1.150000E-1	-1.055430E-5
-1.100000E-1	-1.053340E-5
-1.050000E-1	-1.049920E-5
-1.000000E-1	-1.045610E-5
-9.500001E-2	-1.041750E-5
-9.000000E-2	-1.037380E-5
-8.500001E-2	-1.032380E-5
-8.000001E-2	-1.029250E-5
-7.500000E-2	-1.026300E-5
-7.000001E-2	-1.020860E-5
-6.500001E-2	-1.016870E-5
-6.000000E-2	-1.013930E-5
-5.500001E-2	-1.008930E-5
-5.000001E-2	-1.002830E-5
-4.500000E-2	-9.998010E-6
-4.000001E-2	-9.957760E-6
-3.500001E-2	-9.898960E-6
-3.000000E-2	-9.847050E-6
-2.500001E-2	-9.795100E-6
-2.000001E-2	-9.764210E-6
-1.500000E-2	-9.690120E-6
-1.000001E-2	-9.654310E-6
-5.000010E-3	-9.611850E-6
-1.490116E-8	-9.557290E-6
4.999995E-3	-9.521970E-6
9.999990E-3	-9.466670E-6
1.499999E-2	-9.412690E-6
2.000000E-2	-9.351910E-6
2.499999E-2	-9.292750E-6
2.999999E-2	-9.231120E-6
3.500000E-2	-9.192240E-6
3.999999E-2	-9.136200E-6
4.499999E-2	-9.072430E-6
5.000000E-2	-9.000810E-6
5.499999E-2	-8.931850E-6
5.999999E-2	-8.857820E-6
6.499998E-2	-8.789750E-6
6.999998E-2	-8.738830E-6
7.500000E-2	-8.666340E-6
8.000000E-2	-8.619110E-6
8.499999E-2	-8.565320E-6
8.999999E-2	-8.485020E-6
9.499998E-2	-8.428210E-6
9.999998E-2	-8.339720E-6
1.050000E-1	-8.261480E-6
1.100000E-1	-8.190820E-6
1.150000E-1	-8.108610E-6
1.200000E-1	-8.041880E-6
1.250000E-1	-7.959550E-6
1.300000E-1	-7.890970E-6
1.350000E-1	-7.812110E-6
1.400000E-1	-7.725560E-6
1.450000E-1	-7.632550E-6
1.500000E-1	-7.548260E-6
1.550000E-1	-7.457340E-6
1.600000E-1	-7.354940E-6
1.650000E-1	-7.270490E-6
1.700000E-1	-7.165060E-6
1.750000E-1	-7.066810E-6
1.800000E-1	-6.979610E-6
1.850000E-1	-6.880020E-6
1.900000E-1	-6.780750E-6
1.950000E-1	-6.681120E-6
2.000000E-1	-6.585440E-6
2.050000E-1	-6.467570E-6
2.100000E-1	-6.348660E-6
2.150000E-1	-6.246820E-6
2.200000E-1	-6.142030E-6
2.250000E-1	-6.023220E-6
2.300000E-1	-5.913150E-6
2.350000E-1	-5.799800E-6
2.400000E-1	-5.681770E-6
2.450000E-1	-5.567800E-6
2.500000E-1	-5.437850E-6
2.550000E-1	-5.318840E-6
2.600000E-1	-5.197780E-6
2.650000E-1	-5.067160E-6
2.700000E-1	-4.940220E-6
2.750000E-1	-4.811030E-6
2.800000E-1	-4.676420E-6
2.850000E-1	-4.546880E-6
2.900000E-1	-4.413110E-6
2.950000E-1	-4.289320E-6
3.000000E-1	-4.153510E-6
3.050000E-1	-4.014710E-6
3.100000E-1	-3.875260E-6
3.150000E-1	-3.734110E-6
3.200000E-1	-3.579960E-6
3.250000E-1	-3.440560E-6
3.300000E-1	-3.299980E-6
3.350000E-1	-3.155180E-6
3.400000E-1	-3.006180E-6
3.450000E-1	-2.858470E-6
3.500000E-1	-2.707220E-6
3.550000E-1	-2.552320E-6
3.600000E-1	-2.389960E-6
3.650000E-1	-2.229460E-6
3.700000E-1	-2.067660E-6
3.750000E-1	-1.900180E-6
3.800000E-1	-1.728420E-6
3.850000E-1	-1.558080E-6
3.900000E-1	-1.382680E-6
3.950000E-1	-1.202880E-6
4.000000E-1	-1.016270E-6
4.050000E-1	-8.268880E-7
4.100000E-1	-6.331100E-7
4.150000E-1	-4.321750E-7
4.200000E-1	-2.280980E-7
4.250000E-1	2.728220E-10
4.300000E-1	8.460330E-8
4.350000E-1	4.414090E-7
4.400000E-1	6.797620E-7
4.450000E-1	9.267180E-7
4.500000E-1	1.186420E-6
4.550000E-1	1.457590E-6
4.600000E-1	1.745910E-6
4.650000E-1	2.047290E-6
4.700000E-1	2.364980E-6
4.750000E-1	2.698890E-6
4.800000E-1	3.047160E-6
4.850000E-1	3.420480E-6
4.900000E-1	3.813360E-6
4.950000E-1	4.233850E-6
5.000000E-1	4.679740E-6
5.050000E-1	5.155640E-6
5.100000E-1	5.662730E-6
5.150000E-1	6.201930E-6
5.200000E-1	6.777470E-6
5.250000E-1	7.393630E-6
5.300000E-1	8.052190E-6
5.350000E-1	8.757130E-6
5.400000E-1	9.510970E-6
5.450000E-1	1.032080E-5
5.500000E-1	1.118600E-5
5.550000E-1	1.210500E-5
5.600000E-1	1.309040E-5
5.650000E-1	1.414070E-5
5.700000E-1	1.526450E-5
5.750000E-1	1.646460E-5
5.800000E-1	1.773590E-5
5.850000E-1	1.909970E-5
5.900000E-1	2.054990E-5
5.950000E-1	2.209560E-5
6.000000E-1	2.373730E-5
6.050000E-1	2.548020E-5
6.100000E-1	2.733110E-5
6.150000E-1	2.928720E-5
6.200000E-1	3.136160E-5
6.250000E-1	3.355050E-5
6.300000E-1	3.586000E-5
6.350000E-1	3.830010E-5
6.400000E-1	4.086300E-5
6.450000E-1	4.355100E-5
6.500000E-1	4.638310E-5
6.550000E-1	4.935210E-5
6.600000E-1	5.246030E-5
6.650000E-1	5.571500E-5
6.700000E-1	5.911130E-5
6.750000E-1	6.265640E-5
6.800000E-1	6.634670E-5
6.850000E-1	7.019380E-5
6.900000E-1	7.418400E-5
6.950000E-1	7.832670E-5
7.000000E-1	8.262240E-5
7.050000E-1	8.705030E-5
7.100000E-1	9.164930E-5
7.150000E-1	9.638960E-5
7.200000E-1	1.012960E-4
7.250000E-1	1.063480E-4
7.300000E-1	1.115570E-4
7.350000E-1	1.168900E-4
7.400000E-1	1.223870E-4
7.450000E-1	1.280310E-4
7.500000E-1	1.338250E-4
7.550000E-1	1.397560E-4
7.600000E-1	1.458220E-4
7.650000E-1	1.520280E-4
7.700000E-1	1.583470E-4
7.750000E-1	1.648270E-4
7.800000E-1	1.714350E-4
7.850000E-1	1.781750E-4
7.900000E-1	1.850470E-4
7.950000E-1	1.920310E-4
8.000000E-1	1.991500E-4
