Voltage [V]	Current [A]
-2.000000E-1	-5.896260E-6
-1.950000E-1	-5.879920E-6
-1.900000E-1	-5.868490E-6
-1.850000E-1	-5.854250E-6
-1.800000E-1	-5.828690E-6
-1.750000E-1	-5.818850E-6
-1.700000E-1	-5.790070E-6
-1.650000E-1	-5.777120E-6
-1.600000E-1	-5.750290E-6
-1.550000E-1	-5.722290E-6
-1.500000E-1	-5.710550E-6
-1.450000E-1	-5.688600E-6
-1.400000E-1	-5.677170E-6
-1.350000E-1	-5.659840E-6
-1.300000E-1	-5.638310E-6
-1.250000E-1	-5.627080E-6
-1.200000E-1	-5.602310E-6
-1.150000E-1	-5.580930E-6
-1.100000E-1	-5.548310E-6
-1.050000E-1	-5.514710E-6
-1.000000E-1	-5.499800E-6
-9.500001E-2	-5.474300E-6
-9.000000E-2	-5.464170E-6
-8.500001E-2	-5.445340E-6
-8.000001E-2	-5.435260E-6
-7.500000E-2	-5.415910E-6
-7.000001E-2	-5.398450E-6
-6.500001E-2	-5.368950E-6
-6.000000E-2	-5.331740E-6
-5.500001E-2	-5.302920E-6
-5.000001E-2	-5.275690E-6
-4.500000E-2	-5.249920E-6
-4.000001E-2	-5.235390E-6
-3.500001E-2	-5.209520E-6
-3.000000E-2	-5.188170E-6
-2.500001E-2	-5.157530E-6
-2.000001E-2	-5.132470E-6
-1.500000E-2	-5.111080E-6
-1.000001E-2	-5.088030E-6
-5.000010E-3	-5.063550E-6
-1.490116E-8	-5.038130E-6
4.999995E-3	-5.004990E-6
9.999990E-3	-4.978380E-6
1.499999E-2	-4.957720E-6
2.000000E-2	-4.921650E-6
2.499999E-2	-4.900620E-6
2.999999E-2	-4.866750E-6
3.500000E-2	-4.845660E-6
3.999999E-2	-4.809510E-6
4.499999E-2	-4.769420E-6
5.000000E-2	-4.741090E-6
5.499999E-2	-4.712100E-6
5.999999E-2	-4.675850E-6
6.499998E-2	-4.643780E-6
6.999998E-2	-4.607760E-6
7.500000E-2	-4.583840E-6
8.000000E-2	-4.540610E-6
8.499999E-2	-4.507970E-6
8.999999E-2	-4.465020E-6
9.499998E-2	-4.429120E-6
9.999998E-2	-4.379460E-6
1.050000E-1	-4.344050E-6
1.100000E-1	-4.308940E-6
1.150000E-1	-4.268880E-6
1.200000E-1	-4.229270E-6
1.250000E-1	-4.184180E-6
1.300000E-1	-4.141210E-6
1.350000E-1	-4.101090E-6
1.400000E-1	-4.049040E-6
1.450000E-1	-3.999410E-6
1.500000E-1	-3.951110E-6
1.550000E-1	-3.899610E-6
1.600000E-1	-3.851540E-6
1.650000E-1	-3.804520E-6
1.700000E-1	-3.756630E-6
1.750000E-1	-3.702920E-6
1.800000E-1	-3.652550E-6
1.850000E-1	-3.602780E-6
1.900000E-1	-3.545780E-6
1.950000E-1	-3.498460E-6
2.000000E-1	-3.434290E-6
2.050000E-1	-3.375570E-6
2.100000E-1	-3.316290E-6
2.150000E-1	-3.254250E-6
2.200000E-1	-3.189830E-6
2.250000E-1	-3.131010E-6
2.300000E-1	-3.069590E-6
2.350000E-1	-3.006400E-6
2.400000E-1	-2.941170E-6
2.450000E-1	-2.871490E-6
2.500000E-1	-2.804440E-6
2.550000E-1	-2.738640E-6
2.600000E-1	-2.666850E-6
2.650000E-1	-2.596510E-6
2.700000E-1	-2.523510E-6
2.750000E-1	-2.450180E-6
2.800000E-1	-2.372060E-6
2.850000E-1	-2.295800E-6
2.900000E-1	-2.210310E-6
2.950000E-1	-2.137250E-6
3.000000E-1	-2.055470E-6
3.050000E-1	-1.972850E-6
3.100000E-1	-1.890960E-6
3.150000E-1	-1.807840E-6
3.200000E-1	-1.720260E-6
3.250000E-1	-1.630770E-6
3.300000E-1	-1.538740E-6
3.350000E-1	-1.443630E-6
3.400000E-1	-1.347920E-6
3.450000E-1	-1.254520E-6
3.500000E-1	-1.155240E-6
3.550000E-1	-1.052070E-6
3.600000E-1	-9.440240E-7
3.650000E-1	-8.383640E-7
3.700000E-1	-7.270710E-7
3.750000E-1	-6.111080E-7
3.800000E-1	-4.953410E-7
3.850000E-1	-3.727770E-7
3.900000E-1	-2.457310E-7
3.950000E-1	-1.134480E-7
4.000000E-1	9.849330E-9
4.050000E-1	6.884680E-8
4.100000E-1	3.172240E-7
4.150000E-1	4.719940E-7
4.200000E-1	6.318200E-7
4.250000E-1	8.020060E-7
4.300000E-1	9.803440E-7
4.350000E-1	1.168420E-6
4.400000E-1	1.366280E-6
4.450000E-1	1.574230E-6
4.500000E-1	1.792840E-6
4.550000E-1	2.025290E-6
4.600000E-1	2.272180E-6
4.650000E-1	2.535070E-6
4.700000E-1	2.815110E-6
4.750000E-1	3.111220E-6
4.800000E-1	3.426930E-6
4.850000E-1	3.763500E-6
4.900000E-1	4.121760E-6
4.950000E-1	4.505920E-6
5.000000E-1	4.916000E-6
5.050000E-1	5.356210E-6
5.100000E-1	5.825130E-6
5.150000E-1	6.327550E-6
5.200000E-1	6.867420E-6
5.250000E-1	7.445200E-6
5.300000E-1	8.064420E-6
5.350000E-1	8.727420E-6
5.400000E-1	9.439170E-6
5.450000E-1	1.021040E-5
5.500000E-1	1.102680E-5
5.550000E-1	1.189940E-5
5.600000E-1	1.283610E-5
5.650000E-1	1.383820E-5
5.700000E-1	1.490820E-5
5.750000E-1	1.605270E-5
5.800000E-1	1.726740E-5
5.850000E-1	1.857290E-5
5.900000E-1	1.995950E-5
5.950000E-1	2.144000E-5
6.000000E-1	2.301360E-5
6.050000E-1	2.468690E-5
6.100000E-1	2.646110E-5
6.150000E-1	2.834380E-5
6.200000E-1	3.033530E-5
6.250000E-1	3.244260E-5
6.300000E-1	3.467040E-5
6.350000E-1	3.701780E-5
6.400000E-1	3.949460E-5
6.450000E-1	4.208900E-5
6.500000E-1	4.482920E-5
6.550000E-1	4.770050E-5
6.600000E-1	5.071280E-5
6.650000E-1	5.386940E-5
6.700000E-1	5.716330E-5
6.750000E-1	6.060840E-5
6.800000E-1	6.419610E-5
6.850000E-1	6.793280E-5
6.900000E-1	7.181170E-5
6.950000E-1	7.584610E-5
7.000000E-1	8.002790E-5
7.050000E-1	8.435620E-5
7.100000E-1	8.884290E-5
7.150000E-1	9.348400E-5
7.200000E-1	9.827740E-5
7.250000E-1	1.032220E-4
7.300000E-1	1.083050E-4
7.350000E-1	1.135410E-4
7.400000E-1	1.189270E-4
7.450000E-1	1.244520E-4
7.500000E-1	1.301380E-4
7.550000E-1	1.359530E-4
7.600000E-1	1.419050E-4
7.650000E-1	1.479980E-4
7.700000E-1	1.542070E-4
7.750000E-1	1.605890E-4
7.800000E-1	1.670770E-4
7.850000E-1	1.737150E-4
7.900000E-1	1.804710E-4
7.950000E-1	1.873510E-4
8.000000E-1	1.943690E-4
