Voltage [V]	Current [A]
-2.000000E-1	-6.915930E-5
-1.950000E-1	-6.886870E-5
-1.900000E-1	-6.860460E-5
-1.850000E-1	-6.838570E-5
-1.800000E-1	-6.805820E-5
-1.750000E-1	-6.792730E-5
-1.700000E-1	-6.784490E-5
-1.650000E-1	-6.758600E-5
-1.600000E-1	-6.747930E-5
-1.550000E-1	-6.713650E-5
-1.500000E-1	-6.681260E-5
-1.450000E-1	-6.658790E-5
-1.400000E-1	-6.633280E-5
-1.350000E-1	-6.617570E-5
-1.300000E-1	-6.583760E-5
-1.250000E-1	-6.568350E-5
-1.200000E-1	-6.538960E-5
-1.150000E-1	-6.509900E-5
-1.100000E-1	-6.498820E-5
-1.050000E-1	-6.471300E-5
-1.000000E-1	-6.450990E-5
-9.500001E-2	-6.415210E-5
-9.000000E-2	-6.386790E-5
-8.500001E-2	-6.365390E-5
-8.000001E-2	-6.340580E-5
-7.500000E-2	-6.314380E-5
-7.000001E-2	-6.279570E-5
-6.500001E-2	-6.260670E-5
-6.000000E-2	-6.234670E-5
-5.500001E-2	-6.204410E-5
-5.000001E-2	-6.167590E-5
-4.500000E-2	-6.137480E-5
-4.000001E-2	-6.117300E-5
-3.500001E-2	-6.083200E-5
-3.000000E-2	-6.057920E-5
-2.500001E-2	-6.033620E-5
-2.000001E-2	-5.997270E-5
-1.500000E-2	-5.973370E-5
-1.000001E-2	-5.942350E-5
-5.000010E-3	-5.909140E-5
-1.490116E-8	-5.872930E-5
4.999995E-3	-5.839180E-5
9.999990E-3	-5.811230E-5
1.499999E-2	-5.773290E-5
2.000000E-2	-5.729930E-5
2.499999E-2	-5.698170E-5
2.999999E-2	-5.657320E-5
3.500000E-2	-5.625530E-5
3.999999E-2	-5.587990E-5
4.499999E-2	-5.550550E-5
5.000000E-2	-5.525360E-5
5.499999E-2	-5.473210E-5
5.999999E-2	-5.440950E-5
6.499998E-2	-5.402370E-5
6.999998E-2	-5.353600E-5
7.500000E-2	-5.307080E-5
8.000000E-2	-5.268580E-5
8.499999E-2	-5.224720E-5
8.999999E-2	-5.178220E-5
9.499998E-2	-5.135820E-5
9.999998E-2	-5.092620E-5
1.050000E-1	-5.054770E-5
1.100000E-1	-5.005630E-5
1.150000E-1	-4.948030E-5
1.200000E-1	-4.902440E-5
1.250000E-1	-4.851120E-5
1.300000E-1	-4.799380E-5
1.350000E-1	-4.746000E-5
1.400000E-1	-4.695970E-5
1.450000E-1	-4.645950E-5
1.500000E-1	-4.585750E-5
1.550000E-1	-4.531450E-5
1.600000E-1	-4.481730E-5
1.650000E-1	-4.417100E-5
1.700000E-1	-4.349210E-5
1.750000E-1	-4.303380E-5
1.800000E-1	-4.240190E-5
1.850000E-1	-4.185620E-5
1.900000E-1	-4.129170E-5
1.950000E-1	-4.064060E-5
2.000000E-1	-4.002550E-5
2.050000E-1	-3.942860E-5
2.100000E-1	-3.871300E-5
2.150000E-1	-3.806350E-5
2.200000E-1	-3.742820E-5
2.250000E-1	-3.683740E-5
2.300000E-1	-3.625900E-5
2.350000E-1	-3.553340E-5
2.400000E-1	-3.485370E-5
2.450000E-1	-3.421570E-5
2.500000E-1	-3.352300E-5
2.550000E-1	-3.283340E-5
2.600000E-1	-3.213050E-5
2.650000E-1	-3.150330E-5
2.700000E-1	-3.078560E-5
2.750000E-1	-3.012670E-5
2.800000E-1	-2.946690E-5
2.850000E-1	-2.872910E-5
2.900000E-1	-2.803760E-5
2.950000E-1	-2.727660E-5
3.000000E-1	-2.654660E-5
3.050000E-1	-2.587320E-5
3.100000E-1	-2.516970E-5
3.150000E-1	-2.448400E-5
3.200000E-1	-2.381650E-5
3.250000E-1	-2.308820E-5
3.300000E-1	-2.240520E-5
3.350000E-1	-2.168370E-5
3.400000E-1	-2.097580E-5
3.450000E-1	-2.027820E-5
3.500000E-1	-1.957610E-5
3.550000E-1	-1.888810E-5
3.600000E-1	-1.820860E-5
3.650000E-1	-1.753510E-5
3.700000E-1	-1.685740E-5
3.750000E-1	-1.618970E-5
3.800000E-1	-1.552530E-5
3.850000E-1	-1.484350E-5
3.900000E-1	-1.416190E-5
3.950000E-1	-1.349760E-5
4.000000E-1	-1.285670E-5
4.050000E-1	-1.219390E-5
4.100000E-1	-1.154000E-5
4.150000E-1	-1.091740E-5
4.200000E-1	-1.024050E-5
4.250000E-1	-9.635540E-6
4.300000E-1	-8.996230E-6
4.350000E-1	-8.340050E-6
4.400000E-1	-7.699540E-6
4.450000E-1	-7.057650E-6
4.500000E-1	-6.432780E-6
4.550000E-1	-5.803710E-6
4.600000E-1	-5.169490E-6
4.650000E-1	-4.519800E-6
4.700000E-1	-3.861810E-6
4.750000E-1	-3.204210E-6
4.800000E-1	-2.529330E-6
4.850000E-1	-1.844300E-6
4.900000E-1	-1.145260E-6
4.950000E-1	-4.377990E-7
5.000000E-1	2.997260E-7
5.050000E-1	1.045580E-6
5.100000E-1	1.822180E-6
5.150000E-1	2.618240E-6
5.200000E-1	3.445850E-6
5.250000E-1	4.313030E-6
5.300000E-1	5.221590E-6
5.350000E-1	6.167120E-6
5.400000E-1	7.156870E-6
5.450000E-1	8.196630E-6
5.500000E-1	9.295020E-6
5.550000E-1	1.045120E-5
5.600000E-1	1.167870E-5
5.650000E-1	1.296940E-5
5.700000E-1	1.433170E-5
5.750000E-1	1.577550E-5
5.800000E-1	1.729820E-5
5.850000E-1	1.891900E-5
5.900000E-1	2.062640E-5
5.950000E-1	2.244580E-5
6.000000E-1	2.435940E-5
6.050000E-1	2.638940E-5
6.100000E-1	2.853230E-5
6.150000E-1	3.079610E-5
6.200000E-1	3.318500E-5
6.250000E-1	3.570080E-5
6.300000E-1	3.835330E-5
6.350000E-1	4.114100E-5
6.400000E-1	4.407220E-5
6.450000E-1	4.713310E-5
6.500000E-1	5.035340E-5
6.550000E-1	5.372470E-5
6.600000E-1	5.724310E-5
6.650000E-1	6.091550E-5
6.700000E-1	6.474390E-5
6.750000E-1	6.873920E-5
6.800000E-1	7.287870E-5
6.850000E-1	7.718870E-5
6.900000E-1	8.165700E-5
6.950000E-1	8.628000E-5
7.000000E-1	9.105000E-5
7.050000E-1	9.597050E-5
7.100000E-1	1.010800E-4
7.150000E-1	1.063280E-4
7.200000E-1	1.117190E-4
7.250000E-1	1.172840E-4
7.300000E-1	1.230040E-4
7.350000E-1	1.288790E-4
7.400000E-1	1.349030E-4
7.450000E-1	1.410800E-4
7.500000E-1	1.474150E-4
7.550000E-1	1.538700E-4
7.600000E-1	1.604650E-4
7.650000E-1	1.672090E-4
7.700000E-1	1.740530E-4
7.750000E-1	1.810480E-4
7.800000E-1	1.882060E-4
7.850000E-1	1.954620E-4
7.900000E-1	2.028620E-4
7.950000E-1	2.104040E-4
8.000000E-1	2.180700E-4
