Voltage [V]	Current [A]
-2.000000E-1	-7.962280E-5
-1.950000E-1	-7.945100E-5
-1.900000E-1	-7.927560E-5
-1.850000E-1	-7.909030E-5
-1.800000E-1	-7.897720E-5
-1.750000E-1	-7.862180E-5
-1.700000E-1	-7.835460E-5
-1.650000E-1	-7.808960E-5
-1.600000E-1	-7.779150E-5
-1.550000E-1	-7.756190E-5
-1.500000E-1	-7.720790E-5
-1.450000E-1	-7.698830E-5
-1.400000E-1	-7.660450E-5
-1.350000E-1	-7.640620E-5
-1.300000E-1	-7.621740E-5
-1.250000E-1	-7.601900E-5
-1.200000E-1	-7.575800E-5
-1.150000E-1	-7.560720E-5
-1.100000E-1	-7.524290E-5
-1.050000E-1	-7.500690E-5
-1.000000E-1	-7.449530E-5
-9.500001E-2	-7.429140E-5
-9.000000E-2	-7.390710E-5
-8.500001E-2	-7.356820E-5
-8.000001E-2	-7.333350E-5
-7.500000E-2	-7.306860E-5
-7.000001E-2	-7.279410E-5
-6.500001E-2	-7.250450E-5
-6.000000E-2	-7.213690E-5
-5.500001E-2	-7.183690E-5
-5.000001E-2	-7.157280E-5
-4.500000E-2	-7.114470E-5
-4.000001E-2	-7.089900E-5
-3.500001E-2	-7.040370E-5
-3.000000E-2	-7.021850E-5
-2.500001E-2	-6.992730E-5
-2.000001E-2	-6.953150E-5
-1.500000E-2	-6.924220E-5
-1.000001E-2	-6.888060E-5
-5.000010E-3	-6.858300E-5
-1.490116E-8	-6.806290E-5
4.999995E-3	-6.775890E-5
9.999990E-3	-6.744240E-5
1.499999E-2	-6.690500E-5
2.000000E-2	-6.656120E-5
2.499999E-2	-6.630230E-5
2.999999E-2	-6.587880E-5
3.500000E-2	-6.551310E-5
3.999999E-2	-6.498100E-5
4.499999E-2	-6.452190E-5
5.000000E-2	-6.415670E-5
5.499999E-2	-6.366780E-5
5.999999E-2	-6.318900E-5
6.499998E-2	-6.282520E-5
6.999998E-2	-6.235240E-5
7.500000E-2	-6.178440E-5
8.000000E-2	-6.136670E-5
8.499999E-2	-6.081830E-5
8.999999E-2	-6.026440E-5
9.499998E-2	-5.983710E-5
9.999998E-2	-5.932640E-5
1.050000E-1	-5.893950E-5
1.100000E-1	-5.837220E-5
1.150000E-1	-5.786780E-5
1.200000E-1	-5.724730E-5
1.250000E-1	-5.675060E-5
1.300000E-1	-5.614170E-5
1.350000E-1	-5.557710E-5
1.400000E-1	-5.498620E-5
1.450000E-1	-5.444780E-5
1.500000E-1	-5.377790E-5
1.550000E-1	-5.318220E-5
1.600000E-1	-5.249430E-5
1.650000E-1	-5.181370E-5
1.700000E-1	-5.118860E-5
1.750000E-1	-5.054630E-5
1.800000E-1	-4.998170E-5
1.850000E-1	-4.930380E-5
1.900000E-1	-4.868130E-5
1.950000E-1	-4.793960E-5
2.000000E-1	-4.720560E-5
2.050000E-1	-4.645110E-5
2.100000E-1	-4.578210E-5
2.150000E-1	-4.502900E-5
2.200000E-1	-4.429000E-5
2.250000E-1	-4.353190E-5
2.300000E-1	-4.283660E-5
2.350000E-1	-4.200660E-5
2.400000E-1	-4.122590E-5
2.450000E-1	-4.048530E-5
2.500000E-1	-3.960760E-5
2.550000E-1	-3.881930E-5
2.600000E-1	-3.809730E-5
2.650000E-1	-3.734600E-5
2.700000E-1	-3.656150E-5
2.750000E-1	-3.568690E-5
2.800000E-1	-3.487380E-5
2.850000E-1	-3.407990E-5
2.900000E-1	-3.319620E-5
2.950000E-1	-3.245480E-5
3.000000E-1	-3.159120E-5
3.050000E-1	-3.084240E-5
3.100000E-1	-3.001100E-5
3.150000E-1	-2.918060E-5
3.200000E-1	-2.832530E-5
3.250000E-1	-2.755750E-5
3.300000E-1	-2.670850E-5
3.350000E-1	-2.591700E-5
3.400000E-1	-2.511210E-5
3.450000E-1	-2.427990E-5
3.500000E-1	-2.345830E-5
3.550000E-1	-2.265580E-5
3.600000E-1	-2.186750E-5
3.650000E-1	-2.104600E-5
3.700000E-1	-2.026420E-5
3.750000E-1	-1.952680E-5
3.800000E-1	-1.874250E-5
3.850000E-1	-1.795110E-5
3.900000E-1	-1.721290E-5
3.950000E-1	-1.644040E-5
4.000000E-1	-1.568170E-5
4.050000E-1	-1.492610E-5
4.100000E-1	-1.416580E-5
4.150000E-1	-1.342050E-5
4.200000E-1	-1.271240E-5
4.250000E-1	-1.197310E-5
4.300000E-1	-1.127300E-5
4.350000E-1	-1.054200E-5
4.400000E-1	-9.826720E-6
4.450000E-1	-9.108830E-6
4.500000E-1	-8.393780E-6
4.550000E-1	-7.673480E-6
4.600000E-1	-6.968120E-6
4.650000E-1	-6.278840E-6
4.700000E-1	-5.533880E-6
4.750000E-1	-4.815390E-6
4.800000E-1	-4.099640E-6
4.850000E-1	-3.356810E-6
4.900000E-1	-2.621020E-6
4.950000E-1	-1.871330E-6
5.000000E-1	-1.096610E-6
5.050000E-1	-3.057600E-7
5.100000E-1	4.927640E-7
5.150000E-1	1.323720E-6
5.200000E-1	2.182120E-6
5.250000E-1	3.075400E-6
5.300000E-1	3.988490E-6
5.350000E-1	4.949880E-6
5.400000E-1	5.936120E-6
5.450000E-1	6.979240E-6
5.500000E-1	8.079170E-6
5.550000E-1	9.233980E-6
5.600000E-1	1.046950E-5
5.650000E-1	1.175460E-5
5.700000E-1	1.310750E-5
5.750000E-1	1.454270E-5
5.800000E-1	1.605750E-5
5.850000E-1	1.766040E-5
5.900000E-1	1.935690E-5
5.950000E-1	2.115140E-5
6.000000E-1	2.305350E-5
6.050000E-1	2.506130E-5
6.100000E-1	2.718640E-5
6.150000E-1	2.942840E-5
6.200000E-1	3.179750E-5
6.250000E-1	3.429290E-5
6.300000E-1	3.692610E-5
6.350000E-1	3.969410E-5
6.400000E-1	4.260290E-5
6.450000E-1	4.564510E-5
6.500000E-1	4.884770E-5
6.550000E-1	5.219630E-5
6.600000E-1	5.570320E-5
6.650000E-1	5.936490E-5
6.700000E-1	6.317950E-5
6.750000E-1	6.715950E-5
6.800000E-1	7.128990E-5
6.850000E-1	7.558910E-5
6.900000E-1	8.004100E-5
6.950000E-1	8.465560E-5
7.000000E-1	8.943810E-5
7.050000E-1	9.436780E-5
7.100000E-1	9.947240E-5
7.150000E-1	1.047200E-4
7.200000E-1	1.101370E-4
7.250000E-1	1.157150E-4
7.300000E-1	1.214330E-4
7.350000E-1	1.273140E-4
7.400000E-1	1.333460E-4
7.450000E-1	1.395240E-4
7.500000E-1	1.458580E-4
7.550000E-1	1.523170E-4
7.600000E-1	1.589160E-4
7.650000E-1	1.656730E-4
7.700000E-1	1.725570E-4
7.750000E-1	1.795940E-4
7.800000E-1	1.867530E-4
7.850000E-1	1.940570E-4
7.900000E-1	2.014730E-4
7.950000E-1	2.090270E-4
8.000000E-1	2.167250E-4
