Voltage [V]	Current [A]
-2.000000E-1	-3.857220E-5
-1.950000E-1	-3.846080E-5
-1.900000E-1	-3.829680E-5
-1.850000E-1	-3.812880E-5
-1.800000E-1	-3.808520E-5
-1.750000E-1	-3.798750E-5
-1.700000E-1	-3.786730E-5
-1.650000E-1	-3.775780E-5
-1.600000E-1	-3.764540E-5
-1.550000E-1	-3.753230E-5
-1.500000E-1	-3.735440E-5
-1.450000E-1	-3.716820E-5
-1.400000E-1	-3.708620E-5
-1.350000E-1	-3.695290E-5
-1.300000E-1	-3.686950E-5
-1.250000E-1	-3.675340E-5
-1.200000E-1	-3.664180E-5
-1.150000E-1	-3.647160E-5
-1.100000E-1	-3.631700E-5
-1.050000E-1	-3.623090E-5
-1.000000E-1	-3.602120E-5
-9.500001E-2	-3.588020E-5
-9.000000E-2	-3.574210E-5
-8.500001E-2	-3.559980E-5
-8.000001E-2	-3.545460E-5
-7.500000E-2	-3.527730E-5
-7.000001E-2	-3.519360E-5
-6.500001E-2	-3.500960E-5
-6.000000E-2	-3.487700E-5
-5.500001E-2	-3.472940E-5
-5.000001E-2	-3.462710E-5
-4.500000E-2	-3.446060E-5
-4.000001E-2	-3.423230E-5
-3.500001E-2	-3.407870E-5
-3.000000E-2	-3.390630E-5
-2.500001E-2	-3.377230E-5
-2.000001E-2	-3.356950E-5
-1.500000E-2	-3.339460E-5
-1.000001E-2	-3.328810E-5
-5.000010E-3	-3.307300E-5
-1.490116E-8	-3.291960E-5
4.999995E-3	-3.268600E-5
9.999990E-3	-3.248180E-5
1.499999E-2	-3.236890E-5
2.000000E-2	-3.212570E-5
2.499999E-2	-3.196030E-5
2.999999E-2	-3.171700E-5
3.500000E-2	-3.153910E-5
3.999999E-2	-3.132420E-5
4.499999E-2	-3.112140E-5
5.000000E-2	-3.088280E-5
5.499999E-2	-3.069630E-5
5.999999E-2	-3.048830E-5
6.499998E-2	-3.027750E-5
6.999998E-2	-3.006360E-5
7.500000E-2	-2.980630E-5
8.000000E-2	-2.954960E-5
8.499999E-2	-2.935050E-5
8.999999E-2	-2.907380E-5
9.499998E-2	-2.883550E-5
9.999998E-2	-2.855000E-5
1.050000E-1	-2.829310E-5
1.100000E-1	-2.804260E-5
1.150000E-1	-2.778800E-5
1.200000E-1	-2.754470E-5
1.250000E-1	-2.730100E-5
1.300000E-1	-2.700150E-5
1.350000E-1	-2.671140E-5
1.400000E-1	-2.640440E-5
1.450000E-1	-2.605190E-5
1.500000E-1	-2.572290E-5
1.550000E-1	-2.541640E-5
1.600000E-1	-2.510190E-5
1.650000E-1	-2.483000E-5
1.700000E-1	-2.452970E-5
1.750000E-1	-2.416770E-5
1.800000E-1	-2.387830E-5
1.850000E-1	-2.351960E-5
1.900000E-1	-2.316590E-5
1.950000E-1	-2.281010E-5
2.000000E-1	-2.246280E-5
2.050000E-1	-2.209790E-5
2.100000E-1	-2.172740E-5
2.150000E-1	-2.137610E-5
2.200000E-1	-2.104940E-5
2.250000E-1	-2.068160E-5
2.300000E-1	-2.031770E-5
2.350000E-1	-1.995510E-5
2.400000E-1	-1.957690E-5
2.450000E-1	-1.916590E-5
2.500000E-1	-1.877390E-5
2.550000E-1	-1.833450E-5
2.600000E-1	-1.795520E-5
2.650000E-1	-1.758480E-5
2.700000E-1	-1.720410E-5
2.750000E-1	-1.682020E-5
2.800000E-1	-1.640990E-5
2.850000E-1	-1.600700E-5
2.900000E-1	-1.560380E-5
2.950000E-1	-1.520740E-5
3.000000E-1	-1.478640E-5
3.050000E-1	-1.435840E-5
3.100000E-1	-1.395340E-5
3.150000E-1	-1.355320E-5
3.200000E-1	-1.313070E-5
3.250000E-1	-1.272430E-5
3.300000E-1	-1.230810E-5
3.350000E-1	-1.187670E-5
3.400000E-1	-1.146610E-5
3.450000E-1	-1.106740E-5
3.500000E-1	-1.064410E-5
3.550000E-1	-1.027320E-5
3.600000E-1	-9.822210E-6
3.650000E-1	-9.405360E-6
3.700000E-1	-9.017470E-6
3.750000E-1	-8.603500E-6
3.800000E-1	-8.190240E-6
3.850000E-1	-7.785900E-6
3.900000E-1	-7.364770E-6
3.950000E-1	-6.945690E-6
4.000000E-1	-6.529280E-6
4.050000E-1	-6.108820E-6
4.100000E-1	-5.691160E-6
4.150000E-1	-5.288490E-6
4.200000E-1	-4.868490E-6
4.250000E-1	-4.455270E-6
4.300000E-1	-4.021170E-6
4.350000E-1	-3.590400E-6
4.400000E-1	-3.152290E-6
4.450000E-1	-2.716680E-6
4.500000E-1	-2.280700E-6
4.550000E-1	-1.823830E-6
4.600000E-1	-1.365530E-6
4.650000E-1	-8.990200E-7
4.700000E-1	-4.154100E-7
4.750000E-1	3.124810E-8
4.800000E-1	5.978250E-7
4.850000E-1	1.109360E-6
4.900000E-1	1.663060E-6
4.950000E-1	2.226620E-6
5.000000E-1	2.811690E-6
5.050000E-1	3.431390E-6
5.100000E-1	4.075280E-6
5.150000E-1	4.754230E-6
5.200000E-1	5.463630E-6
5.250000E-1	6.210330E-6
5.300000E-1	7.005380E-6
5.350000E-1	7.838820E-6
5.400000E-1	8.723170E-6
5.450000E-1	9.665630E-6
5.500000E-1	1.066830E-5
5.550000E-1	1.173040E-5
5.600000E-1	1.285630E-5
5.650000E-1	1.405320E-5
5.700000E-1	1.532450E-5
5.750000E-1	1.667670E-5
5.800000E-1	1.810700E-5
5.850000E-1	1.963650E-5
5.900000E-1	2.125820E-5
5.950000E-1	2.298090E-5
6.000000E-1	2.480480E-5
6.050000E-1	2.673950E-5
6.100000E-1	2.878500E-5
6.150000E-1	3.095240E-5
6.200000E-1	3.323800E-5
6.250000E-1	3.565000E-5
6.300000E-1	3.819500E-5
6.350000E-1	4.086800E-5
6.400000E-1	4.368320E-5
6.450000E-1	4.662310E-5
6.500000E-1	4.972010E-5
6.550000E-1	5.295970E-5
6.600000E-1	5.634280E-5
6.650000E-1	5.988090E-5
6.700000E-1	6.357110E-5
6.750000E-1	6.741000E-5
6.800000E-1	7.140410E-5
6.850000E-1	7.555600E-5
6.900000E-1	7.985400E-5
6.950000E-1	8.431160E-5
7.000000E-1	8.892800E-5
7.050000E-1	9.368490E-5
7.100000E-1	9.861290E-5
7.150000E-1	1.036880E-4
7.200000E-1	1.089200E-4
7.250000E-1	1.143050E-4
7.300000E-1	1.198350E-4
7.350000E-1	1.255060E-4
7.400000E-1	1.313430E-4
7.450000E-1	1.373190E-4
7.500000E-1	1.434480E-4
7.550000E-1	1.497100E-4
7.600000E-1	1.561090E-4
7.650000E-1	1.626410E-4
7.700000E-1	1.693030E-4
7.750000E-1	1.761260E-4
7.800000E-1	1.830770E-4
7.850000E-1	1.901550E-4
7.900000E-1	1.973570E-4
7.950000E-1	2.046550E-4
8.000000E-1	2.120950E-4
