Voltage [V]	Current [A]
-2.000000E-1	-2.048330E-5
-1.950000E-1	-2.042160E-5
-1.900000E-1	-2.035860E-5
-1.850000E-1	-2.031070E-5
-1.800000E-1	-2.022590E-5
-1.750000E-1	-2.012810E-5
-1.700000E-1	-2.007700E-5
-1.650000E-1	-2.000530E-5
-1.600000E-1	-1.991550E-5
-1.550000E-1	-1.991150E-5
-1.500000E-1	-1.983950E-5
-1.450000E-1	-1.975560E-5
-1.400000E-1	-1.971300E-5
-1.350000E-1	-1.961550E-5
-1.300000E-1	-1.959040E-5
-1.250000E-1	-1.948050E-5
-1.200000E-1	-1.938830E-5
-1.150000E-1	-1.938650E-5
-1.100000E-1	-1.928820E-5
-1.050000E-1	-1.920410E-5
-1.000000E-1	-1.912370E-5
-9.500001E-2	-1.904860E-5
-9.000000E-2	-1.899460E-5
-8.500001E-2	-1.892020E-5
-8.000001E-2	-1.883690E-5
-7.500000E-2	-1.875780E-5
-7.000001E-2	-1.869870E-5
-6.500001E-2	-1.863610E-5
-6.000000E-2	-1.859340E-5
-5.500001E-2	-1.848610E-5
-5.000001E-2	-1.838030E-5
-4.500000E-2	-1.830920E-5
-4.000001E-2	-1.820570E-5
-3.500001E-2	-1.811140E-5
-3.000000E-2	-1.800170E-5
-2.500001E-2	-1.793770E-5
-2.000001E-2	-1.784500E-5
-1.500000E-2	-1.774520E-5
-1.000001E-2	-1.769720E-5
-5.000010E-3	-1.761930E-5
-1.490116E-8	-1.751230E-5
4.999995E-3	-1.742620E-5
9.999990E-3	-1.730770E-5
1.499999E-2	-1.722100E-5
2.000000E-2	-1.709950E-5
2.499999E-2	-1.700980E-5
2.999999E-2	-1.687640E-5
3.500000E-2	-1.678450E-5
3.999999E-2	-1.666050E-5
4.499999E-2	-1.656040E-5
5.000000E-2	-1.642080E-5
5.499999E-2	-1.634400E-5
5.999999E-2	-1.625250E-5
6.499998E-2	-1.612010E-5
6.999998E-2	-1.601650E-5
7.500000E-2	-1.590890E-5
8.000000E-2	-1.575910E-5
8.499999E-2	-1.564200E-5
8.999999E-2	-1.552710E-5
9.499998E-2	-1.537780E-5
9.999998E-2	-1.524520E-5
1.050000E-1	-1.511530E-5
1.100000E-1	-1.496650E-5
1.150000E-1	-1.481390E-5
1.200000E-1	-1.467470E-5
1.250000E-1	-1.452840E-5
1.300000E-1	-1.438630E-5
1.350000E-1	-1.422400E-5
1.400000E-1	-1.407940E-5
1.450000E-1	-1.391780E-5
1.500000E-1	-1.375280E-5
1.550000E-1	-1.360800E-5
1.600000E-1	-1.343920E-5
1.650000E-1	-1.327740E-5
1.700000E-1	-1.308930E-5
1.750000E-1	-1.294370E-5
1.800000E-1	-1.276820E-5
1.850000E-1	-1.258140E-5
1.900000E-1	-1.240050E-5
1.950000E-1	-1.221150E-5
2.000000E-1	-1.204210E-5
2.050000E-1	-1.182120E-5
2.100000E-1	-1.162030E-5
2.150000E-1	-1.144370E-5
2.200000E-1	-1.123670E-5
2.250000E-1	-1.106220E-5
2.300000E-1	-1.084690E-5
2.350000E-1	-1.064550E-5
2.400000E-1	-1.043740E-5
2.450000E-1	-1.021330E-5
2.500000E-1	-1.000010E-5
2.550000E-1	-9.789360E-6
2.600000E-1	-9.583340E-6
2.650000E-1	-9.362210E-6
2.700000E-1	-9.159220E-6
2.750000E-1	-8.931280E-6
2.800000E-1	-8.699830E-6
2.850000E-1	-8.474650E-6
2.900000E-1	-8.248060E-6
2.950000E-1	-8.012760E-6
3.000000E-1	-7.768960E-6
3.050000E-1	-7.550420E-6
3.100000E-1	-7.322940E-6
3.150000E-1	-7.093850E-6
3.200000E-1	-6.861340E-6
3.250000E-1	-6.633750E-6
3.300000E-1	-6.394500E-6
3.350000E-1	-6.153140E-6
3.400000E-1	-5.891630E-6
3.450000E-1	-5.658470E-6
3.500000E-1	-5.413550E-6
3.550000E-1	-5.167130E-6
3.600000E-1	-4.914710E-6
3.650000E-1	-4.674840E-6
3.700000E-1	-4.416530E-6
3.750000E-1	-4.171310E-6
3.800000E-1	-3.909470E-6
3.850000E-1	-3.661690E-6
3.900000E-1	-3.404510E-6
3.950000E-1	-3.134790E-6
4.000000E-1	-2.878450E-6
4.050000E-1	-2.610260E-6
4.100000E-1	-2.335140E-6
4.150000E-1	-2.060280E-6
4.200000E-1	-1.770410E-6
4.250000E-1	-1.493770E-6
4.300000E-1	-1.202770E-6
4.350000E-1	-9.028090E-7
4.400000E-1	-5.917390E-7
4.450000E-1	-2.770450E-7
4.500000E-1	1.615750E-8
4.550000E-1	3.863990E-7
4.600000E-1	7.320960E-7
4.650000E-1	1.097130E-6
4.700000E-1	1.468880E-6
4.750000E-1	1.861590E-6
4.800000E-1	2.267540E-6
4.850000E-1	2.691860E-6
4.900000E-1	3.141110E-6
4.950000E-1	3.617700E-6
5.000000E-1	4.116480E-6
5.050000E-1	4.647230E-6
5.100000E-1	5.205250E-6
5.150000E-1	5.798440E-6
5.200000E-1	6.426150E-6
5.250000E-1	7.094680E-6
5.300000E-1	7.806120E-6
5.350000E-1	8.561610E-6
5.400000E-1	9.369130E-6
5.450000E-1	1.023950E-5
5.500000E-1	1.115460E-5
5.550000E-1	1.213560E-5
5.600000E-1	1.317990E-5
5.650000E-1	1.429360E-5
5.700000E-1	1.548370E-5
5.750000E-1	1.675170E-5
5.800000E-1	1.809450E-5
5.850000E-1	1.953100E-5
5.900000E-1	2.105820E-5
5.950000E-1	2.268210E-5
6.000000E-1	2.440640E-5
6.050000E-1	2.623740E-5
6.100000E-1	2.817470E-5
6.150000E-1	3.022710E-5
6.200000E-1	3.239710E-5
6.250000E-1	3.468560E-5
6.300000E-1	3.710280E-5
6.350000E-1	3.964660E-5
6.400000E-1	4.232470E-5
6.450000E-1	4.512380E-5
6.500000E-1	4.807750E-5
6.550000E-1	5.116450E-5
6.600000E-1	5.439720E-5
6.650000E-1	5.777930E-5
6.700000E-1	6.130850E-5
6.750000E-1	6.498960E-5
6.800000E-1	6.881490E-5
6.850000E-1	7.279750E-5
6.900000E-1	7.692230E-5
6.950000E-1	8.120990E-5
7.000000E-1	8.564500E-5
7.050000E-1	9.021210E-5
7.100000E-1	9.495580E-5
7.150000E-1	9.985840E-5
7.200000E-1	1.049010E-4
7.250000E-1	1.101070E-4
7.300000E-1	1.154500E-4
7.350000E-1	1.209520E-4
7.400000E-1	1.266000E-4
7.450000E-1	1.323750E-4
7.500000E-1	1.383200E-4
7.550000E-1	1.443990E-4
7.600000E-1	1.506020E-4
7.650000E-1	1.569500E-4
7.700000E-1	1.634030E-4
7.750000E-1	1.700260E-4
7.800000E-1	1.767840E-4
7.850000E-1	1.836820E-4
7.900000E-1	1.907030E-4
7.950000E-1	1.978340E-4
8.000000E-1	2.051050E-4
